\DATE= 'Wed Sep 26 14:41:45 2007'
\APERNAME= 'LL1'
\BUNIT= 'e/s/pix'
\CAL_SET= 'irs_2007_02_12-pb-pfc-trim-omeg-lhbiasfork.cal'
\SOFTWARE= 'CUBISM'
\SOFT_VER= 'v1.50pre3 (March-2007)'
\FILENAME= 'll1.tbl'
\ COMMENT This file contains a spectral extraction created from
\ COMMENT an IRS spectral mapping dataset.
\ Extraction Rectangle:
\ # Box: 11:20:16.156,+12:59:08.21 ; 11:20:16.836,+12:59:25.94
\ #      11:20:13.805,+12:59:50.78 ; 11:20:13.125,+12:59:33.06
|   WAVELENGTH    |      FLUX       | FLUX_UNCERTAINTY |
|      real       |      real       |       real       |
|       um        |     e/s/pix     |     e/s/pix      |
         20.52005          15.23384          0.1934710
         20.69658          16.71503         0.07980394
         20.87322          16.17057         0.06849129
         21.04995          16.02312         0.05879276
         21.22679          17.07491         0.06835701
         21.40373          17.04734         0.06173496
         21.58078          16.80500         0.05958308
         21.75792          17.66403         0.06558604
         21.93517          18.22460         0.06558687
         22.11252          18.10526         0.04824023
         22.28998          17.89597         0.04167733
         22.46754          18.96243         0.04691822
         22.64520          19.82228         0.04829086
         22.82297          20.15528         0.04208269
         23.00084          20.19770         0.04035468
         23.17881          21.02237         0.04714244
         23.35689          21.36308         0.04765963
         23.53507          22.22318         0.04919128
         23.71336          22.24088         0.04409704
         23.89176          22.41803         0.04490833
         24.07026          22.90775         0.04816391
         24.24886          23.29391         0.05141801
         24.42757          23.61155         0.05274545
         24.60638          24.30440         0.05230599
         24.78531          24.68518         0.05202472
         24.96433          24.68685         0.05837230
         25.14346          25.88091         0.05384950
         25.32270          25.96886         0.05567106
         25.50205          26.39495         0.05328478
         25.68150          27.54795         0.05716227
         25.86106          28.87022         0.07173714
         26.04073          30.40854         0.06036543
         26.22051          29.46714         0.05690935
         26.40039          28.90730         0.05723797
         26.58038          29.66853         0.06085067
         26.76048          30.35298         0.06162879
         26.94068          30.72007         0.05820333
         27.12100          31.38207         0.06209896
         27.30142          32.18496         0.05695384
         27.48195          32.32394         0.05560689
         27.66259          33.09459         0.05880473
         27.84334          33.69804         0.05952552
         28.02420          34.93757         0.05698474
         28.20517          37.38645         0.06221988
         28.38625          37.53395         0.05883854
         28.56744          36.62104         0.06003509
         28.74874          36.91990         0.05993168
         28.93015          37.88485          0.3073810
         29.11167          39.16118          0.1278972
         29.29330          39.51690         0.06699756
         29.47504          40.03901         0.07194540
         29.65689          41.18764         0.06368338
         29.83886          41.45345         0.06222466
         30.02094          42.07560         0.06468093
         30.20312          42.89165         0.07933858
         30.38542          44.79092         0.06692722
         30.56783          45.39994         0.06570554
         30.75036          47.03122         0.07359852
         30.93299          47.23925         0.08055259
         31.11574          49.22297         0.08347492
         31.29861          48.89848         0.08416753
         31.48158          49.75024         0.07500735
         31.66467          51.24271         0.08208955
         31.84788          53.00600         0.09124980
         32.03119          53.96757         0.09358723
         32.21462          56.59696         0.09826138
         32.39817          59.65191          0.1180079
         32.58183          57.85829          0.1010448
         32.76560          59.34770          0.1015523
         32.94949          60.72292          0.1082019
         33.13350          63.47628          0.1037531
         33.31762          64.46040          0.1215945
         33.50185          69.21834          0.1277457
         33.68620          71.76820          0.1454252
         33.87067          66.46452          0.1381341
         34.05526          69.00687          0.1467969
         34.23996          64.57034          0.1550908
         34.42477          69.15378          0.1503686
         34.60971          74.53587          0.1609040
         34.79476          82.59570          0.1681605
         34.97993          92.11875          0.1906272
         35.16521          77.13805          0.1793262
         35.35062          77.94214          0.2057654
         35.53614          74.71397          0.2017737
         35.72178          76.46210          0.2209972
         35.90754          78.57784          0.3353076
         36.09341          75.96445          0.2606571
         36.27941          78.50934          0.2761100
         36.46552          85.84924          0.3324854
         36.65176          84.69786          0.3490420
         36.83811          86.71021          0.3625360
         37.02459          81.64529          0.3724972
         37.21118          87.22385          0.4054638
         37.39790          88.29492          0.4099064
         37.58473          88.50598          0.4534745
         37.77169          92.50035          0.6020180
         37.95876          99.12048          0.7696415
         38.14596          111.2483          0.8751481
         38.33328          96.78613          0.8430899
