\DATE= 'Sat Feb 16 04:00:01 2008'
\APERNAME= 'SL1'
\BUNIT= 'e/s/pix'
\CAL_SET= 'irs_2007_02_12-pb-pfc-trim-omeg-lhbiasfork.cal'
\SOFTWARE= 'CUBISM'
\SOFT_VER= 'v1.50pre3 (March-2007)'
\FILENAME= 'sl1.tbl'
\ COMMENT This file contains a spectral extraction created from
\ COMMENT an IRS spectral mapping dataset.
\ Extraction Rectangle:
\ # Box: 12:36:49.556,+13:09:44.28 ; 12:36:49.899,+13:09:41.89
\ #      12:36:50.063,+13:09:46.89 ; 12:36:49.721,+13:09:49.29
|   WAVELENGTH    |      FLUX       | FLUX_UNCERTAINTY |
|      real       |      real       |       real       |
|       um        |     e/s/pix     |     e/s/pix      |
         7.533706          148.0084           2.012250
         7.595799          165.0566           2.211763
         7.657894          157.6996           2.258065
         7.719988          163.2488           1.902748
         7.782082          157.7864           1.648626
         7.844176          156.4110           2.178928
         7.906271          144.1671           1.981067
         7.968365          134.3271           1.760984
         8.030458          125.7000           1.566920
         8.092554          107.2077           1.391334
         8.154648          100.0441           1.229898
         8.216742          109.2700           1.434423
         8.278836          100.1736           1.329284
         8.340930          99.08020           1.227018
         8.403025          101.6052          0.9413486
         8.465118          108.6899           1.059978
         8.527213          116.1152          0.9145173
         8.589307          117.4317           1.195359
         8.651402          110.0886           1.057773
         8.713495          101.2922          0.9303482
         8.775590          89.42962          0.9253769
         8.837685          79.29176          0.8288038
         8.899778          75.50663          0.8561105
         8.961872          75.07174          0.9979833
         9.023967          74.01402           1.232668
         9.086061          72.00807          0.9679446
         9.148155          74.48794           1.051544
         9.210249          74.78087           1.222956
         9.272344          76.17255           1.021635
         9.334438          75.47004           1.375368
         9.396532          77.28312           1.319698
         9.458626          79.75747           1.148515
         9.520720          80.04103           1.197986
         9.582815          86.83029          0.9256814
         9.644909          111.1652          0.8616489
         9.707003          94.86713          0.8259184
         9.769097          90.38577          0.8693643
         9.831192          76.66066          0.7873191
         9.893286          76.80706          0.7903523
         9.955380          76.64458          0.7670178
         10.01747          76.23600          0.9488761
         10.07957          76.96367          0.7934611
         10.14166          76.98299          0.7844627
         10.20376          75.22263          0.7185733
         10.26585          76.01084          0.9453964
         10.32795          75.51463          0.6466991
         10.39004          78.83831          0.8909960
         10.45213          83.01482          0.8610737
         10.51423          89.87144           1.048711
         10.57632          90.46582          0.8551195
         10.63842          89.66215          0.9165337
         10.70051          91.84973           1.093785
         10.76260          92.20875          0.8995609
         10.82470          89.98402           1.140807
         10.88679          94.49287           1.256068
         10.94889          103.3070          0.8817421
         11.01098          111.0840           1.152977
         11.07308          127.5822           1.021823
         11.13517          188.3713          0.9467595
         11.19726          286.6409          0.8988858
         11.25936          310.9748           1.008900
         11.32145          264.1830           1.067067
         11.38355          214.1921          0.9410920
         11.44564          181.5378          0.9043916
         11.50774          157.7570          0.8338795
         11.56983          140.9926          0.6641212
         11.63192          130.4265          0.8578715
         11.69402          121.9144          0.9648891
         11.75611          120.8621          0.7520190
         11.81821          121.9424           1.009065
         11.88030          129.5647           1.072538
         11.94240          137.4880           1.033286
         12.00449          134.9747           1.049452
         12.06658          133.9425           1.127885
         12.12868          129.3060           1.055199
         12.19077          127.4169          0.9888756
         12.25287          144.4657           1.069578
         12.31496          144.8475           1.166985
         12.37705          137.7966           1.226204
         12.43915          142.5142           1.087068
         12.50124          146.5686           1.040291
         12.56334          153.9821          0.9945710
         12.62543          157.9821          0.9566441
         12.68753          164.5022          0.8559579
         12.74962          200.5762          0.8658636
         12.81171          216.9328          0.8390348
         12.87381          144.0011          0.8975856
         12.93590          113.4431          0.7415044
         12.99800          107.3814          0.9369224
         13.06009          104.8071          0.8457751
         13.12218          103.6801           1.015136
         13.18428          103.5923           1.026804
         13.24637          104.0348          0.8016639
         13.30847          102.9321           1.019855
         13.37056          102.3943          0.9334297
         13.43266          103.4139           1.219126
         13.49475          109.2654           1.483788
         13.55684          108.6409           1.040349
         13.61894          108.8515           1.149010
         13.68103          103.5228           1.555114
         13.74313          98.28625           1.317242
         13.80522          95.66941           1.194492
         13.86732          97.17435           1.341848
         13.92941          92.99090           1.349612
         13.99150          94.33310           1.205035
         14.05360          95.90506           1.097673
         14.11569          97.45635          0.9894904
         14.17779          98.37385           1.055308
         14.23988          95.48681           1.159912
         14.30198          95.22688           1.067764
         14.36407          92.26557           1.018846
         14.42616          85.98231          0.9831511
         14.48826          85.77697          0.9855649
         14.55035          82.14332          0.9430335
         14.61245          78.55889          0.9360414
         14.67454          76.04054          0.8615272
         14.73664          73.80418          0.8097476
