\DATE= 'Sat Feb 16 04:00:27 2008'
\APERNAME= 'SL2'
\BUNIT= 'e/s/pix'
\CAL_SET= 'irs_2007_02_12-pb-pfc-trim-omeg-lhbiasfork.cal'
\SOFTWARE= 'CUBISM'
\SOFT_VER= 'v1.50pre3 (March-2007)'
\FILENAME= 'sl2.tbl'
\ COMMENT This file contains a spectral extraction created from
\ COMMENT an IRS spectral mapping dataset.
\ Extraction Rectangle:
\ # Box: 12:36:49.314,+13:09:45.46 ; 12:36:50.000,+13:09:40.66
\ #      12:36:50.273,+13:09:49.00 ; 12:36:49.588,+13:09:53.80
|   WAVELENGTH    |      FLUX       | FLUX_UNCERTAINTY |
|      real       |      real       |       real       |
|       um        |     e/s/pix     |     e/s/pix      |
         5.242817          17.02090           1.818332
         5.273802          21.33208           1.449536
         5.304788          21.51764           1.307343
         5.335773          22.82687           1.121144
         5.366758          18.34569           1.105661
         5.397744          20.29855          0.9660270
         5.428729          18.32318           1.003063
         5.459714          17.15739          0.9943124
         5.490700          20.54008          0.9672860
         5.521685          21.57903          0.7121202
         5.552670          18.25494          0.8769712
         5.583656          16.67205          0.9283484
         5.614641          19.53191          0.9209235
         5.645627          21.56310          0.8499719
         5.676612          21.87412          0.9230286
         5.707598          22.91315          0.9936401
         5.738583          20.12987          0.9655638
         5.769568          21.96899           1.012022
         5.800553          20.80260          0.9106883
         5.831539          18.81444           1.085917
         5.862525          20.54934           1.139030
         5.893510          23.90560           1.247153
         5.924495          23.99640           1.304308
         5.955481          25.01008           1.096145
         5.986466          27.92698           1.138647
         6.017451          30.68087          0.9179295
         6.048437          31.97408          0.9637028
         6.079422          34.18682          0.9180852
         6.110407          38.29035          0.9713805
         6.141393          45.14285          0.8747600
         6.172378          54.10705          0.8937289
         6.203363          58.15146          0.9022487
         6.234349          55.96528          0.9243667
         6.265334          49.65215          0.9543729
         6.296319          44.56228          0.8232570
         6.327305          34.91620           1.050861
         6.358290          37.49538           1.019193
         6.389276          32.78098          0.9138187
         6.420261          29.98448           1.071051
         6.451246          30.69941          0.8985456
         6.482232          27.48628          0.9738733
         6.513217          27.36988           1.239749
         6.544202          27.80289           1.453700
         6.575188          27.24007           1.386405
         6.606173          28.41845           1.312428
         6.637158          29.23512           1.539334
         6.668144          28.34558           1.152568
         6.699129          30.61326           1.091646
         6.730114          30.45588           1.266410
         6.761100          29.66985           1.138617
         6.792085          29.72179           1.168650
         6.823071          31.17389           1.076591
         6.854056          32.97323           1.092066
         6.885041          42.27711           1.194249
         6.916027          48.26001           1.172057
         6.947012          39.98774           1.148234
         6.977998          40.96339           1.260738
         7.008983          37.05515           1.204417
         7.039968          33.05067           1.217676
         7.070954          34.53809           1.275741
         7.101939          36.98220           1.251063
         7.132924          36.21946           1.444714
         7.163910          43.10384           1.321774
         7.194895          41.11035           1.347384
         7.225881          41.96207           1.419418
         7.256866          43.49388           1.786315
         7.287851          47.03279           1.704780
         7.318837          43.92494           1.817296
         7.349822          51.20547           2.202651
         7.380807          49.72838           1.755355
         7.411793          59.96685           1.717338
         7.442778          60.55915           1.656552
         7.473763          68.35401           1.533544
         7.504749          71.39704           1.723368
         7.535734          75.98001           1.721798
         7.566720          75.66759           1.788378
         7.597705          80.93926           1.854398
