\DATE= 'Mon Oct 15 19:13:29 2007'
\APERNAME= 'SL2'
\BUNIT= 'e/s/pix'
\CAL_SET= 'irs_2007_02_12-pb-pfc-trim-omeg-lhbiasfork.cal'
\SOFTWARE= 'CUBISM'
\SOFT_VER= 'v1.50pre3 (March-2007)'
\FILENAME= 'sl2.tbl'
\ COMMENT This file contains a spectral extraction created from
\ COMMENT an IRS spectral mapping dataset.
\ Extraction Rectangle:
\ # Box: 10:43:58.082,+11:42:16.96 ; 10:43:57.723,+11:42:18.67
\ #      10:43:57.607,+11:42:13.39 ; 10:43:57.966,+11:42:11.68
|   WAVELENGTH    |      FLUX       | FLUX_UNCERTAINTY |
|      real       |      real       |       real       |
|       um        |     e/s/pix     |     e/s/pix      |
         5.242817          22.44447           2.792464
         5.273802          18.61635           2.839854
         5.304788          17.92277           2.316150
         5.335773          21.24838           2.218553
         5.366758          23.46504           2.499057
         5.397744          18.30598           2.163876
         5.428729          14.83804           1.720271
         5.459714          18.80985           1.155842
         5.490700          15.69860           1.567807
         5.521685          19.99792           1.434879
         5.552670          17.66582           1.420338
         5.583656          18.45368           1.416894
         5.614641          24.33431           1.530560
         5.645627          20.98888           1.745806
         5.676612          26.14067           1.263827
         5.707598          28.24142           1.663091
         5.738583          26.15414          0.9872304
         5.769568          24.20544           1.616402
         5.800553          25.80853           1.845662
         5.831539          23.36612           2.228897
         5.862525          26.22468           1.710678
         5.893510          31.85364           1.689869
         5.924495          25.00871           2.359627
         5.955481          30.82468           1.504478
         5.986466          34.15392           2.155216
         6.017451          39.32954           2.007705
         6.048437          38.70308           1.496786
         6.079422          41.81078           2.099165
         6.110407          46.55384           1.680542
         6.141393          54.81497           1.661217
         6.172378          81.24416           1.886737
         6.203363          109.5417           1.422892
         6.234349          114.0487           1.973451
         6.265334          106.1562           2.273037
         6.296319          90.64585           1.518234
         6.327305          73.92899           1.226856
         6.358290          70.37946           1.398744
         6.389276          61.09861           1.395652
         6.420261          52.27200           1.429139
         6.451246          48.99501           1.958006
         6.482232          48.16013           1.666279
         6.513217          44.17592           1.166219
         6.544202          43.63269           2.236382
         6.575188          43.19029           1.987460
         6.606173          40.04638           2.095280
         6.637158          46.57923           2.004904
         6.668144          45.33413           2.126095
         6.699129          43.95543           2.433064
         6.730114          43.88075           2.928982
         6.761100          46.67021           2.736370
         6.792085          48.84914           2.241079
         6.823071          45.29023           2.436730
         6.854056          48.16980           2.455169
         6.885041          47.09867           2.342191
         6.916027          51.99710           1.819598
         6.947012          55.61896           1.746783
         6.977998          77.74229           1.945472
         7.008983          90.69184           2.129586
         7.039968          64.77203           1.899489
         7.070954          64.03132           2.295945
         7.101939          56.81483           1.834391
         7.132924          63.23048           2.281709
         7.163910          67.51244           2.023719
         7.194895          64.03967           2.574560
         7.225881          72.68056           2.631571
         7.256866          69.71494           2.659967
         7.287851          76.52161           4.013911
         7.318837          83.78318           3.859317
         7.349822          88.76926           9.144864
         7.380807          93.42480           3.606785
         7.411793          100.9644           2.556270
         7.442778          108.0854           2.641480
         7.473763          121.2297           2.696784
         7.504749          138.7851           4.316840
         7.535734          151.9538           3.160186
         7.566720          150.7933           3.717616
         7.597705          178.2275           3.188373
