\DATE= 'Fri Feb 15 22:28:52 2008'
\APERNAME= 'SL1'
\BUNIT= 'e/s/pix'
\CAL_SET= 'irs_2007_02_12-pb-pfc-trim-omeg-lhbiasfork.cal'
\SOFTWARE= 'CUBISM'
\SOFT_VER= 'v1.50pre3 (March-2007)'
\FILENAME= 'sl1.tbl'
\ COMMENT This file contains a spectral extraction created from
\ COMMENT an IRS spectral mapping dataset.
\ Extraction Rectangle:
\ # Box: 12:50:53.636,+41:07:18.23 ; 12:50:53.015,+41:07:20.56
\ #      12:50:52.499,+41:07:03.00 ; 12:50:53.121,+41:07:00.67
|   WAVELENGTH    |      FLUX       | FLUX_UNCERTAINTY |
|      real       |      real       |       real       |
|       um        |     e/s/pix     |     e/s/pix      |
         7.533706          126.2178           1.020695
         7.595799          139.7234          0.8975753
         7.657894          136.5422           1.004779
         7.719988          135.3943          0.8926600
         7.782082          133.5102          0.8893258
         7.844176          131.9330          0.8580362
         7.906271          126.2391          0.9033415
         7.968365          116.5946          0.8462492
         8.030458          107.4761          0.9553417
         8.092554          99.96577          0.9499734
         8.154648          97.00715          0.7630745
         8.216742          95.31678          0.7927223
         8.278836          95.24934          0.8651484
         8.340930          94.39079          0.6589463
         8.403025          94.10212          0.5615690
         8.465118          96.54617          0.6135342
         8.527213          100.0534          0.5861228
         8.589307          103.1965          0.5430975
         8.651402          99.38489          0.4816937
         8.713495          91.23505          0.4704846
         8.775590          84.54633          0.4487649
         8.837685          76.37048          0.4223514
         8.899778          70.46568          0.4352337
         8.961872          67.33627          0.4760725
         9.023967          64.04554          0.4909292
         9.086061          62.50686          0.5353619
         9.148155          62.55853          0.5337393
         9.210249          62.75960          0.5404361
         9.272344          62.81160          0.5762262
         9.334438          62.80404          0.5720160
         9.396532          62.21438          0.5550010
         9.458626          62.74873          0.6418426
         9.520720          62.93532          0.6264400
         9.582815          63.76268          0.6967604
         9.644909          70.63072          0.6211720
         9.707003          71.71582          0.6446608
         9.769097          63.06376          0.5288603
         9.831192          61.08386          0.4602164
         9.893286          59.45205          0.4855100
         9.955380          60.23441          0.5088844
         10.01747          60.88323          0.4023457
         10.07957          60.41380          0.3757832
         10.14166          59.43100          0.4173344
         10.20376          59.70556          0.4087315
         10.26585          59.06921          0.3897623
         10.32795          59.68506          0.3721637
         10.39004          61.54105          0.4004915
         10.45213          63.11454          0.3944213
         10.51423          66.14452          0.4174364
         10.57632          71.49424          0.4111300
         10.63842          71.72233          0.4241068
         10.70051          72.14787          0.4577661
         10.76260          73.72385          0.4921526
         10.82470          72.41067          0.4923226
         10.88679          74.53724          0.5105971
         10.94889          80.41917          0.5786781
         11.01098          90.93904          0.5505223
         11.07308          103.4216          0.5933223
         11.13517          145.1332          0.6107434
         11.19726          239.0591          0.5565697
         11.25936          294.5469          0.5768761
         11.32145          263.1434          0.5577732
         11.38355          211.5278          0.5646302
         11.44564          175.7332          0.5190504
         11.50774          149.0661          0.5204341
         11.56983          130.5469          0.4753177
         11.63192          116.4184          0.4576211
         11.69402          108.1440          0.4743724
         11.75611          104.1854          0.3836873
         11.81821          102.9582          0.4301703
         11.88030          108.2127          0.4612961
         11.94240          115.6957          0.4210218
         12.00449          115.9306          0.4571680
         12.06658          111.6779          0.4564169
         12.12868          107.9078          0.4908288
         12.19077          103.1314          0.6018002
         12.25287          110.0510          0.5369740
         12.31496          113.4795          0.5114989
         12.37705          114.9678          0.6505390
         12.43915          117.2579          0.6015247
         12.50124          123.4440          0.7332199
         12.56334          129.1950          0.6644884
         12.62543          134.9713          0.5742487
         12.68753          138.5533          0.5373241
         12.74962          143.6981          0.5614685
         12.81171          143.5632          0.5255733
         12.87381          120.3662          0.4475777
         12.93590          100.0229          0.4292391
         12.99800          92.00382          0.4416279
         13.06009          90.43997          0.4535643
         13.12218          88.69782          0.4698210
         13.18428          88.14561          0.4957407
         13.24637          87.04938          0.4827315
         13.30847          82.95006          0.4428836
         13.37056          82.12658          0.4619716
         13.43266          81.62866          0.4746927
         13.49475          82.26150          0.4954479
         13.55684          82.65240          0.5276347
         13.61894          80.54863          0.5288110
         13.68103          77.82231          0.5751604
         13.74313          71.09424          0.5959445
         13.80522          68.82173          0.6359568
         13.86732          66.54636          0.6508138
         13.92941          67.53226          0.8454096
         13.99150          65.94483          0.7402568
         14.05360          66.31431          0.7696429
         14.11569          65.02348          0.6839073
         14.17779          67.64622          0.6795445
         14.23988          67.21969          0.7353136
         14.30198          66.30946          0.6779183
         14.36407          61.53109          0.6728389
         14.42616          57.77872          0.5805687
         14.48826          56.46690          0.5562282
         14.55035          55.69564          0.4774075
         14.61245          53.36007          0.5716759
         14.67454          51.43230          0.4672804
         14.73664          47.61967          0.4805568
