\DATE= 'Fri Feb 15 22:29:15 2008'
\APERNAME= 'SL2'
\BUNIT= 'e/s/pix'
\CAL_SET= 'irs_2007_02_12-pb-pfc-trim-omeg-lhbiasfork.cal'
\SOFTWARE= 'CUBISM'
\SOFT_VER= 'v1.50pre3 (March-2007)'
\FILENAME= 'sl2.tbl'
\ COMMENT This file contains a spectral extraction created from
\ COMMENT an IRS spectral mapping dataset.
\ Extraction Rectangle:
\ # Box: 12:50:53.599,+41:07:16.93 ; 12:50:52.822,+41:07:19.84
\ #      12:50:52.462,+41:07:07.55 ; 12:50:53.239,+41:07:04.64
|   WAVELENGTH    |      FLUX       | FLUX_UNCERTAINTY |
|      real       |      real       |       real       |
|       um        |     e/s/pix     |     e/s/pix      |
         5.242817          73.16792           1.651603
         5.273802          75.75507           1.502828
         5.304788          76.97621           1.250189
         5.335773          77.58385           1.362459
         5.366758          74.26849           1.121946
         5.397744          70.29432           1.155470
         5.428729          72.61715          0.9883859
         5.459714          70.81321          0.9142660
         5.490700          70.55447          0.8978545
         5.521685          70.74977          0.7419658
         5.552670          68.98365          0.7893485
         5.583656          68.01781          0.7734818
         5.614641          70.08434          0.7778977
         5.645627          75.65608          0.7144613
         5.676612          74.30514          0.7485061
         5.707598          73.15075          0.7453898
         5.738583          73.23289          0.7513703
         5.769568          71.14158          0.7718828
         5.800553          72.91551          0.9192411
         5.831539          73.81848          0.8868197
         5.862525          76.28275          0.9757718
         5.893510          75.13906           1.107199
         5.924495          75.86539           1.033533
         5.955481          77.20868           1.164116
         5.986466          81.29936           1.075871
         6.017451          86.23283          0.9679344
         6.048437          85.62158          0.9421921
         6.079422          87.52094          0.9821709
         6.110407          92.13357          0.8558413
         6.141393          102.8167          0.7928819
         6.172378          110.4470          0.8460178
         6.203363          115.3897          0.8674785
         6.234349          114.6553          0.7642937
         6.265334          106.5358          0.8165051
         6.296319          102.7673          0.8295049
         6.327305          96.03548          0.8068138
         6.358290          92.35661          0.7109941
         6.389276          87.04900          0.7034448
         6.420261          83.03387          0.6976500
         6.451246          79.61141          0.8454081
         6.482232          77.05432          0.8356815
         6.513217          73.76492          0.8161557
         6.544202          74.12084           1.021434
         6.575188          73.68171           1.088272
         6.606173          74.31653           1.065096
         6.637158          73.29470           1.068107
         6.668144          78.31584           1.074661
         6.699129          77.85453           1.025737
         6.730114          78.12244           1.385857
         6.761100          75.84840           1.028980
         6.792085          79.20638           1.131644
         6.823071          80.25128           1.057584
         6.854056          79.77586           1.034342
         6.885041          85.05994           1.119511
         6.916027          87.93146           1.098987
         6.947012          84.89985           1.086938
         6.977998          83.87572           1.111431
         7.008983          84.33641           1.100608
         7.039968          81.07036           1.109091
         7.070954          82.56071           1.038842
         7.101939          88.07057           1.072559
         7.132924          85.74479           1.105228
         7.163910          86.57664           1.176101
         7.194895          90.65645           1.140333
         7.225881          90.38237           1.154704
         7.256866          92.21183           1.419170
         7.287851          93.81584           1.523548
         7.318837          96.94505           1.418624
         7.349822          97.30383           1.603777
         7.380807          99.70850           1.703497
         7.411793          107.0846           1.731103
         7.442778          109.8051           1.751705
         7.473763          112.6130           1.894094
         7.504749          124.0074           1.880194
         7.535734          128.6686           1.769435
         7.566720          134.0611           1.782124
         7.597705          134.3280           1.938211
