\DATE= 'Thu Sep 27 15:02:17 2007'
\APERNAME= 'LL1'
\BUNIT= 'e/s/pix'
\CAL_SET= 'irs_2007_02_12-pb-pfc-trim-omeg-lhbiasfork.cal'
\SOFTWARE= 'CUBISM'
\SOFT_VER= 'v1.50pre3 (March-2007)'
\FILENAME= 'll1.tbl'
\ COMMENT This file contains a spectral extraction created from
\ COMMENT an IRS spectral mapping dataset.
\ Extraction Rectangle:
\ # Box: 10:43:56.185,+11:42:34.30 ; 10:43:55.618,+11:42:15.77
\ #      10:44:00.035,+11:41:46.62 ; 10:44:00.602,+11:42:05.16
|   WAVELENGTH    |      FLUX       | FLUX_UNCERTAINTY |
|      real       |      real       |       real       |
|       um        |     e/s/pix     |     e/s/pix      |
         20.52005          24.87905          0.1794681
         20.69658          26.96978         0.08872788
         20.87322          26.99298         0.07388981
         21.04995          26.56693         0.06213202
         21.22679          28.60414         0.06781301
         21.40373          29.10621         0.06793715
         21.58078          28.27176         0.05742234
         21.75792          29.81949         0.06342274
         21.93517          31.43833         0.06689978
         22.11252          30.85077         0.06213019
         22.28998          30.65590         0.05835491
         22.46754          32.35500         0.06131899
         22.64520          33.97688         0.06800923
         22.82297          34.18391         0.06102014
         23.00084          34.57560         0.05760184
         23.17881          35.15511         0.06239580
         23.35689          35.91296         0.06078774
         23.53507          36.47708         0.06120821
         23.71336          36.19468         0.05967250
         23.89176          36.38363         0.06037694
         24.07026          37.32337         0.06186159
         24.24886          38.29824         0.06545598
         24.42757          38.20044         0.07034717
         24.60638          38.25616         0.06638789
         24.78531          39.25637         0.06928581
         24.96433          40.45181         0.07069631
         25.14346          41.27365         0.06918646
         25.32270          41.02962         0.07288466
         25.50205          41.29493         0.06758169
         25.68150          42.85024         0.07242494
         25.86106          45.05420         0.06951193
         26.04073          46.72342         0.07386006
         26.22051          45.46031         0.08077274
         26.40039          44.73843         0.07102857
         26.58038          45.12970         0.07612131
         26.76048          48.22161         0.07962395
         26.94068          48.18253         0.07399421
         27.12100          49.10950         0.07483868
         27.30142          50.21238         0.07974441
         27.48195          50.72646         0.07837201
         27.66259          49.38915         0.08165736
         27.84334          52.19844         0.08059257
         28.02420          53.15438         0.08701942
         28.20517          55.59053         0.09000228
         28.38625          56.54003          0.1077356
         28.56744          55.39131         0.08655091
         28.74874          55.24519         0.08744026
         28.93015          56.34893         0.08567949
         29.11167          57.42578          0.1423107
         29.29330          58.18404          0.2529132
         29.47504          59.90158          0.1083487
         29.65689          60.46582          0.1065603
         29.83886          61.72290         0.09650942
         30.02094          62.25911         0.09534036
         30.20312          62.56947         0.09081322
         30.38542          65.06390         0.09710348
         30.56783          65.78814          0.1552398
         30.75036          67.74458          0.1438130
         30.93299          69.11265          0.1083723
         31.11574          71.74916          0.1059671
         31.29861          72.41986          0.1127930
         31.48158          72.57200          0.1109732
         31.66467          72.93258          0.1127155
         31.84788          75.13869          0.1200317
         32.03119          74.25193          0.1178025
         32.21462          78.36713          0.1304815
         32.39817          81.12819          0.1433399
         32.58183          82.69732          0.1315095
         32.76560          83.18666          0.1338938
         32.94949          84.74560          0.3250000
         33.13350          87.63849          0.1911275
         33.31762          94.01497          0.1504350
         33.50185          108.6342          0.1769062
         33.68620          109.6462          0.1815870
         33.87067          93.54771          0.1691001
         34.05526          96.81664          0.1894248
         34.23996          92.95360          0.1863421
         34.42477          93.66631          0.1872698
         34.60971          102.6656          0.1960798
         34.79476          130.7790          0.2251464
         34.97993          155.4856          0.2822913
         35.16521          111.0158          0.2184524
         35.35062          100.2525          0.2179046
         35.53614          102.8831          0.2428593
         35.72178          99.68302          0.2380590
         35.90754          94.15517          0.2703099
         36.09341          98.71378          0.2708063
         36.27941          101.6838          0.2755794
         36.46552          107.0332          0.3128739
         36.65176          106.9802          0.3247306
         36.83811          109.9874          0.3600322
         37.02459          108.6369          0.3361054
         37.21118          107.8973          0.3947118
         37.39790          109.5078          0.4040785
         37.58473          111.9035          0.4646935
         37.77169          109.6049          0.5410711
         37.95876          108.5150          0.6722661
         38.14596          143.2127          0.9641140
         38.33328          116.5588          0.7440788
