\DATE= 'Mon Oct  1 22:10:34 2007'
\APERNAME= 'LL2'
\BUNIT= 'e/s/pix'
\CAL_SET= 'irs_2007_02_12-pb-pfc-trim-omeg-lhbiasfork.cal'
\SOFTWARE= 'CUBISM'
\SOFT_VER= 'v1.50pre3 (March-2007)'
\FILENAME= 'll2.tbl'
\ COMMENT This file contains a spectral extraction created from
\ COMMENT an IRS spectral mapping dataset.
\ Extraction Rectangle:
\ # Box: 12:50:55.125,+41:06:42.03 ; 12:50:56.578,+41:07:13.58
\ #      12:50:50.993,+41:07:46.39 ; 12:50:49.542,+41:07:14.84
|   WAVELENGTH    |      FLUX       | FLUX_UNCERTAINTY |
|      real       |      real       |       real       |
|       um        |     e/s/pix     |     e/s/pix      |
         14.26661          18.42035         0.04614723
         14.35830          17.66050         0.03745013
         14.45000          16.80187         0.03671506
         14.54169          16.14606         0.03759644
         14.63338          15.78191         0.03819878
         14.72508          15.49751         0.03814509
         14.81677          15.17872         0.03599132
         14.90846          15.13526         0.03483841
         15.00015          15.00987         0.03171900
         15.09185          15.04679         0.03157888
         15.18354          15.23028         0.03101016
         15.27523          15.58205         0.03128997
         15.36693          15.71236         0.03089245
         15.45862          16.61932         0.08121943
         15.55031          19.15415         0.03700873
         15.64200          18.97433         0.03035527
         15.73370          17.58002         0.03026417
         15.82539          18.31871         0.03331693
         15.91708          19.37228         0.03398080
         16.00878          19.39204         0.03678131
         16.10047          19.45162         0.03789853
         16.19216          19.92792         0.03867389
         16.28386          22.50604         0.04130537
         16.37555          28.19661         0.04363941
         16.46724          32.83856         0.05066358
         16.55893          30.49029         0.08273808
         16.65063          28.52984         0.04123768
         16.74232          29.27354         0.04091335
         16.83401          30.26273         0.04377674
         16.92570          32.18866         0.04318982
         17.01740          37.83538         0.04252590
         17.10909          37.53745         0.04095050
         17.20078          32.65728         0.03891678
         17.29248          31.83781         0.04104462
         17.38417          31.66362         0.04028704
         17.47586          28.93135         0.03989842
         17.56756          25.45007         0.03840944
         17.65925          24.17862         0.03777593
         17.75094          24.44811         0.03946757
         17.84263          23.63773         0.03937911
         17.93433          22.61328         0.04114229
         18.02602          21.16203         0.04138295
         18.11771          20.32155         0.04084942
         18.20941          19.96788         0.04106418
         18.30110          19.78526         0.04137273
         18.39279          19.98058         0.04221637
         18.48449          19.91423         0.04343707
         18.57618          20.46295         0.04548419
         18.66787          23.37140         0.04909746
         18.75956          25.40066         0.06525250
         18.85126          22.01836         0.05152334
         18.94295          20.51641         0.05129782
         19.03464          20.07191         0.05309657
         19.12634          20.19056         0.05764751
         19.21803          19.88639         0.05669494
         19.30972          19.74423         0.06200916
         19.40141          19.58344         0.06545071
         19.49311          19.48953         0.06140774
         19.58480          19.61843         0.06010934
         19.67649          19.58562         0.06133972
         19.76819          19.39083         0.06521261
         19.85988          19.17832         0.09798158
         19.95157          19.14352         0.06484596
         20.04326          19.12990         0.06710376
         20.13496          19.28956         0.06662459
         20.22665          19.35051          0.1506502
         20.31834          19.19225          0.1202280
         20.41004          19.30471         0.06448938
         20.50173          19.13388         0.06702001
         20.59342          19.08522         0.07178444
         20.68512          19.14290         0.07619276
         20.77681          19.12411         0.09863519
         20.86850          18.72445         0.09386397
         20.96019          18.13540         0.09324189
         21.05189          17.85624         0.09391560
