\DATE= 'Sun Mar  9 04:10:12 2008'
\APERNAME= 'SL2'
\BUNIT= 'e/s/pix'
\CAL_SET= 'irs_2007_02_12-pb-pfc-trim-omeg-lhbiasfork.cal'
\SOFTWARE= 'CUBISM'
\SOFT_VER= 'v1.50pre3 (March-2007)'
\FILENAME= 'sl2.tbl'
\ COMMENT This file contains a spectral extraction created from
\ COMMENT an IRS spectral mapping dataset.
\ Extraction Rectangle:
\ # Box: 12:50:26.148,+25:30:00.38 ; 12:50:26.615,+25:29:56.53
\ #      12:50:27.041,+25:30:06.00 ; 12:50:26.575,+25:30:09.86
|   WAVELENGTH    |      FLUX       | FLUX_UNCERTAINTY |
|      real       |      real       |       real       |
|       um        |     e/s/pix     |     e/s/pix      |
         5.242817          14.73483           1.364635
         5.273802          12.30794           1.515180
         5.304788          14.64047           1.176439
         5.335773          15.13568           1.105457
         5.366758          14.46264           1.135716
         5.397744          12.74641           1.212867
         5.428729          13.71049          0.9004975
         5.459714          10.70241          0.8086559
         5.490700          12.88799          0.8056166
         5.521685          13.45683           1.072426
         5.552670          12.47471          0.8605437
         5.583656          12.39687          0.8071871
         5.614641          13.46788          0.7177556
         5.645627          11.81869          0.6923024
         5.676612          11.71476          0.7333388
         5.707598          13.16756          0.6839688
         5.738583          9.820327          0.8670811
         5.769568          12.27430          0.8672927
         5.800553          12.70245          0.8378682
         5.831539          11.26705          0.8344151
         5.862525          11.10842          0.9153355
         5.893510          13.77165           1.047650
         5.924495          12.09240           1.033451
         5.955481          12.29197           1.071413
         5.986466          13.77083           1.083163
         6.017451          14.41873          0.9491389
         6.048437          13.64907          0.9229836
         6.079422          12.76307           1.018235
         6.110407          14.35391          0.9016268
         6.141393          11.66787          0.6738081
         6.172378          14.58240           1.014223
         6.203363          12.07941          0.8538383
         6.234349          11.33230          0.8205486
         6.265334          11.91366          0.6658551
         6.296319          13.85113          0.7626653
         6.327305          13.31356          0.8729956
         6.358290          11.58530          0.7114549
         6.389276          14.09220          0.7398555
         6.420261          12.34426          0.7005057
         6.451246          11.88291          0.8639166
         6.482232          10.46767          0.8122054
         6.513217          12.54061          0.9688282
         6.544202          14.04909           1.037230
         6.575188          11.72095           1.235088
         6.606173          11.74825           1.107465
         6.637158          12.54491           1.243495
         6.668144          11.34323           1.079817
         6.699129          8.826446          0.9588928
         6.730114          10.87394           1.065930
         6.761100          11.84218           1.002691
         6.792085          11.26644           1.087223
         6.823071          10.91491          0.9382365
         6.854056          14.57082           1.016813
         6.885041          11.22698           1.056813
         6.916027          12.65351           1.016063
         6.947012          10.80248           1.046539
         6.977998          7.468254           1.384146
         7.008983          9.341894           1.002689
         7.039968          8.319322          0.9984417
         7.070954          11.43506           1.118610
         7.101939          10.01096           1.005910
         7.132924          13.22449           1.160814
         7.163910          12.26131           1.257934
         7.194895          12.05846           1.190451
         7.225881          10.59690           1.295056
         7.256866          12.01551           1.311342
         7.287851          11.65220           1.488033
         7.318837          12.20797           1.458271
         7.349822          13.01580           1.660841
         7.380807          9.435423           1.635024
         7.411793          9.144073           1.622487
         7.442778          10.12299           1.439281
         7.473763          11.13742           1.429620
         7.504749          7.707769           1.578198
         7.535734          13.95927           1.589718
         7.566720          12.39217           1.624747
         7.597705          14.44264           1.742666
