\DATE= 'Mon Oct 15 19:12:44 2007'
\APERNAME= 'SL1'
\BUNIT= 'e/s/pix'
\CAL_SET= 'irs_2007_02_12-pb-pfc-trim-omeg-lhbiasfork.cal'
\SOFTWARE= 'CUBISM'
\SOFT_VER= 'v1.50pre3 (March-2007)'
\FILENAME= 'sl1.tbl'
\ COMMENT This file contains a spectral extraction created from
\ COMMENT an IRS spectral mapping dataset.
\ Extraction Rectangle:
\ # Box: 10:43:58.270,+11:42:19.45 ; 10:43:57.551,+11:42:22.87
\ #      10:43:57.241,+11:42:08.78 ; 10:43:57.960,+11:42:05.37
|   WAVELENGTH    |      FLUX       | FLUX_UNCERTAINTY |
|      real       |      real       |       real       |
|       um        |     e/s/pix     |     e/s/pix      |
         7.533706          128.3012          0.9092357
         7.595799          151.1268          0.9401200
         7.657894          154.5731          0.8911892
         7.719988          148.9098          0.8763866
         7.782082          147.9197          0.7408464
         7.844176          144.1375          0.7537785
         7.906271          134.5504          0.8463437
         7.968365          119.1072          0.8709739
         8.030458          103.3153          0.7809437
         8.092554          91.25308          0.7901255
         8.154648          83.58060          0.7094061
         8.216742          80.62257          0.7589025
         8.278836          79.40996          0.5983605
         8.340930          80.85435          0.5213593
         8.403025          79.76099          0.5812600
         8.465118          82.74561          0.6391752
         8.527213          90.42023          0.4938365
         8.589307          97.95584          0.4620022
         8.651402          93.53247          0.4603432
         8.713495          80.41218          0.4490921
         8.775590          68.18330          0.4336582
         8.837685          55.85138          0.3857146
         8.899778          48.45098          0.3707181
         8.961872          42.61041          0.3702914
         9.023967          40.93979          0.4282832
         9.086061          37.15792          0.4647759
         9.148155          34.82441          0.3973900
         9.210249          33.85512          0.4432084
         9.272344          33.48979          0.4865158
         9.334438          32.62133          0.4587884
         9.396532          33.49370          0.5076112
         9.458626          30.73629          0.4958730
         9.520720          32.31928          0.5146586
         9.582815          33.04129          0.5348472
         9.644909          35.54416          0.4969602
         9.707003          35.88544          0.5282818
         9.769097          33.52504          0.4296636
         9.831192          31.23119          0.4111153
         9.893286          30.59267          0.4259917
         9.955380          29.84081          0.4054781
         10.01747          29.75445          0.3809899
         10.07957          30.91736          0.3706713
         10.14166          31.07591          0.3790651
         10.20376          30.85842          0.3182423
         10.26585          30.64194          0.3389864
         10.32795          30.73109          0.3603548
         10.39004          32.62694          0.3671303
         10.45213          33.72748          0.3495040
         10.51423          37.13777          0.3791526
         10.57632          41.09915          0.3927070
         10.63842          42.56214          0.3971848
         10.70051          42.71523          0.4166832
         10.76260          43.81125          0.4589156
         10.82470          43.47261          0.4657193
         10.88679          44.94264          0.4620184
         10.94889          52.03445          0.4633754
         11.01098          63.34824          0.4464771
         11.07308          71.07224          0.4964167
         11.13517          86.33194          0.5005670
         11.19726          138.1539          0.5520996
         11.25936          179.7656          0.4864439
         11.32145          167.8418          0.4533881
         11.38355          136.2977          0.4987371
         11.44564          110.6977          0.4403423
         11.50774          94.19717          0.4563262
         11.56983          83.40520          0.4021838
         11.63192          75.70211          0.3673507
         11.69402          70.50480          0.3769532
         11.75611          69.05578          0.3511284
         11.81821          69.41341          0.3935080
         11.88030          71.93406          0.3771558
         11.94240          77.85633          0.3559373
         12.00449          80.19730          0.3936727
         12.06658          79.57623          0.3499423
         12.12868          76.56180          0.4225511
         12.19077          74.90639          0.4621832
         12.25287          77.65591          0.4937893
         12.31496          82.79785          0.4914751
         12.37705          85.28220          0.6044184
         12.43915          89.17826          0.5433087
         12.50124          93.69546          0.5637247
         12.56334          99.99344          0.5207745
         12.62543          106.4729          0.5272320
         12.68753          111.4108          0.5915982
         12.74962          122.2577          0.4874378
         12.81171          203.3457          0.5142920
         12.87381          193.8128          0.4605585
         12.93590          97.46488          0.4350531
         12.99800          72.55243          0.4419608
         13.06009          67.30328          0.4283828
         13.12218          66.78909          0.3908799
         13.18428          65.98242          0.4758734
         13.24637          67.05289          0.4505740
         13.30847          65.73265          0.4551326
         13.37056          65.07168          0.4483590
         13.43266          65.19097          0.4666729
         13.49475          65.19810          0.5320017
         13.55684          66.26629          0.5028558
         13.61894          65.08846          0.5525548
         13.68103          63.58971          0.4988764
         13.74313          62.06148          0.5500101
         13.80522          60.45955          0.6390870
         13.86732          59.92646          0.6604528
         13.92941          61.23545          0.7303059
         13.99150          62.38700          0.7219700
         14.05360          63.94686          0.7681115
         14.11569          64.90349          0.7139463
         14.17779          64.75140          0.7386729
         14.23988          67.55579          0.6693962
         14.30198          66.96954          0.7348079
         14.36407          64.67419          0.6836604
         14.42616          60.00276          0.6248795
         14.48826          57.51169          0.4926059
         14.55035          57.12006          0.4952753
         14.61245          54.36105          0.5016364
         14.67454          52.83891          0.4507986
         14.73664          50.72174          0.4441146
