\DATE= 'Sat Sep 29 01:49:32 2007'
\APERNAME= 'LL1'
\BUNIT= 'e/s/pix'
\CAL_SET= 'irs_2007_02_12-pb-pfc-trim-omeg-lhbiasfork.cal'
\SOFTWARE= 'CUBISM'
\SOFT_VER= 'v1.50pre3 (March-2007)'
\FILENAME= 'll1.tbl'
\ COMMENT This file contains a spectral extraction created from
\ COMMENT an IRS spectral mapping dataset.
\ Extraction Rectangle:
\ # Box: 12:36:50.351,+13:09:28.53 ; 12:36:51.085,+13:09:45.79
\ #      12:36:49.608,+13:09:59.20 ; 12:36:48.874,+13:09:41.94
|   WAVELENGTH    |      FLUX       | FLUX_UNCERTAINTY |
|      real       |      real       |       real       |
|       um        |     e/s/pix     |     e/s/pix      |
         20.52005          30.72371          0.1956832
         20.69658          33.79316          0.1175271
         20.87322          33.83915         0.09316730
         21.04995          32.08088         0.08356766
         21.22679          34.35817         0.09329435
         21.40373          34.55238         0.08660129
         21.58078          33.22867         0.07816980
         21.75792          34.67637         0.07556267
         21.93517          36.15166         0.08756270
         22.11252          35.69653         0.07269375
         22.28998          35.42004         0.08064687
         22.46754          37.14632         0.08366947
         22.64520          38.51299         0.08261558
         22.82297          38.19230         0.07982945
         23.00084          37.76234         0.07405873
         23.17881          38.94598         0.07610712
         23.35689          40.24300         0.07500804
         23.53507          40.82347         0.08554008
         23.71336          39.84755         0.07557442
         23.89176          39.73570         0.07930486
         24.07026          40.32375         0.07931856
         24.24886          40.28594         0.07691798
         24.42757          40.20826         0.08084222
         24.60638          39.58039         0.08626664
         24.78531          39.96021         0.08357174
         24.96433          40.48289         0.08503695
         25.14346          41.11332         0.09354252
         25.32270          40.80864         0.08326764
         25.50205          40.81300         0.08761520
         25.68150          42.84768         0.08929299
         25.86106          45.87603         0.09262380
         26.04073          45.27386         0.08350588
         26.22051          43.00986         0.08611237
         26.40039          42.40475         0.08339207
         26.58038          43.09280         0.08074500
         26.76048          44.17367         0.08485302
         26.94068          44.81904         0.09156679
         27.12100          46.45952         0.08975478
         27.30142          46.78298         0.09031410
         27.48195          46.64995         0.08583912
         27.66259          46.25816         0.08586682
         27.84334          46.82536         0.09159105
         28.02420          49.05686         0.08934678
         28.20517          50.43865         0.09818885
         28.38625          49.72280         0.09967683
         28.56744          48.65456         0.09455560
         28.74874          48.40835         0.08557384
         28.93015          48.50826         0.09466381
         29.11167          49.53848         0.09281036
         29.29330          50.10758          0.1005973
         29.47504          51.22634          0.1022162
         29.65689          50.93543          0.1321460
         29.83886          51.17620         0.09818117
         30.02094          52.30606         0.09784700
         30.20312          53.28757          0.1040915
         30.38542          53.30561          0.1016280
         30.56783          53.42775          0.1107384
         30.75036          55.48128          0.1178850
         30.93299          56.68636          0.1121740
         31.11574          56.52585          0.1071778
         31.29861          57.43834           1.131355
         31.48158          56.88869          0.2038358
         31.66467          60.16668          0.1166403
         31.84788          60.52953          0.1291375
         32.03119          61.10035          0.1311726
         32.21462          62.63776          0.1377111
         32.39817          65.43127          0.1360984
         32.58183          66.83624          0.1450275
         32.76560          68.64861          0.1445235
         32.94949          68.46774          0.1781628
         33.13350          69.68282          0.1531480
         33.31762          75.37069          0.1701579
         33.50185          80.69599          0.1840713
         33.68620          73.82344          0.1829856
         33.87067          75.42149          0.2131779
         34.05526          76.75563          0.2508540
         34.23996          72.93739          0.2294063
         34.42477          73.91624          0.2536101
         34.60971          81.32021          0.5519134
         34.79476          100.2813          0.2779126
         34.97993          94.23450          0.2767291
         35.16521          80.53682          0.2509387
         35.35062          71.69802          0.2523482
         35.53614          71.78227          0.2635554
         35.72178          78.02757          0.2909656
         35.90754          76.61112          0.3226727
         36.09341          84.04713          0.3675834
         36.27941          79.85426          0.3913302
         36.46552          78.27136          0.3629377
         36.65176          78.68616          0.3995427
         36.83811          80.26537          0.4218839
         37.02459          76.89523           4.365438
         37.21118          80.58946          0.9107636
         37.39790          74.09428          0.5047085
         37.58473          77.92081          0.6616272
         37.77169          86.24747          0.7262264
         37.95876          79.60617          0.6570933
         38.14596          95.99966           1.084822
         38.33328          74.42522          0.7322780
