\DATE= 'Wed Oct  3 16:24:11 2007'
\APERNAME= 'LL2'
\BUNIT= 'e/s/pix'
\CAL_SET= 'irs_2007_02_12-pb-pfc-trim-omeg-lhbiasfork.cal'
\SOFTWARE= 'CUBISM'
\SOFT_VER= 'v1.50pre3 (March-2007)'
\FILENAME= 'll2.tbl'
\ COMMENT This file contains a spectral extraction created from
\ COMMENT an IRS spectral mapping dataset.
\ Extraction Rectangle:
\ # Box: 22:37:06.339,+34:24:56.22 ; 22:37:05.654,+34:25:14.69
\ #      22:37:01.176,+34:24:49.28 ; 22:37:01.861,+34:24:30.81
|   WAVELENGTH    |      FLUX       | FLUX_UNCERTAINTY |
|      real       |      real       |       real       |
|       um        |     e/s/pix     |     e/s/pix      |
         14.26661          10.04039         0.04389093
         14.35830          9.898356         0.03776819
         14.45000          9.312526         0.03877302
         14.54169          8.559173         0.03819716
         14.63338          8.467231         0.08079813
         14.72508          8.359694          0.3609091
         14.81677          8.268064         0.04063197
         14.90846          8.158106         0.03963483
         15.00015          8.151341         0.03362753
         15.09185          8.036166         0.03256707
         15.18354          8.181225         0.04167559
         15.27523          8.347863         0.06957749
         15.36693          8.494895         0.03339265
         15.45862          8.817401          0.1011139
         15.55031          10.77044         0.04633665
         15.64200          11.33624         0.03492853
         15.73370          9.444125         0.03347177
         15.82539          9.317780         0.04059856
         15.91708          9.624013         0.03793684
         16.00878          9.756011         0.04171123
         16.10047          9.845146         0.04296844
         16.19216          10.08061         0.04308478
         16.28386          10.95175         0.04553800
         16.37555          13.11354         0.04563377
         16.46724          15.93166         0.04265650
         16.55893          15.69879         0.04173853
         16.65063          14.42675         0.04080228
         16.74232          14.49463         0.04171240
         16.83401          14.78864         0.04237060
         16.92570          15.25538         0.04392400
         17.01740          17.80179         0.07436907
         17.10909          19.45580         0.05706920
         17.20078          16.73299         0.03924626
         17.29248          15.84175          0.2088178
         17.38417          16.11886          0.1440972
         17.47586          15.19827         0.07000958
         17.56756          13.29360         0.03832484
         17.65925          12.18342         0.04215399
         17.75094          11.97287         0.04515943
         17.84263          11.93293         0.04476288
         17.93433          11.50263         0.04988032
         18.02602          10.82265         0.05323568
         18.11771          10.41548         0.04820415
         18.20941          10.31196         0.04918267
         18.30110          10.20055         0.05373180
         18.39279          10.32597         0.05405632
         18.48449          10.28884         0.05666636
         18.57618          10.51727         0.06477039
         18.66787          12.63891         0.06146601
         18.75956          16.62512         0.07959740
         18.85126          13.90725         0.07130633
         18.94295          11.36176         0.06741504
         19.03464          10.83064         0.07034495
         19.12634          10.80324         0.07578731
         19.21803          10.40932         0.07309055
         19.30972          10.30495         0.07558966
         19.40141          10.33456         0.07130892
         19.49311          10.29080         0.07733543
         19.58480          10.22214         0.07728320
         19.67649          10.30904         0.07525399
         19.76819          10.17230         0.07208845
         19.85988          10.41402         0.09894993
         19.95157          10.19702         0.06785903
         20.04326          10.13986         0.07333746
         20.13496          10.48592         0.07410269
         20.22665          10.51375         0.08640135
         20.31834          10.43189         0.08332229
         20.41004          10.52959          0.1913597
         20.50173          10.37976         0.09154150
         20.59342          10.61711         0.09689035
         20.68512          10.41909          0.1099678
         20.77681          10.27393          0.1339791
         20.86850          9.786841          0.1334297
         20.96019          10.09121          0.1259582
         21.05189          9.761490          0.1115118
