\DATE= 'Fri Feb 15 15:55:53 2008'
\APERNAME= 'SL1'
\BUNIT= 'e/s/pix'
\CAL_SET= 'irs_2007_02_12-pb-pfc-trim-omeg-lhbiasfork.cal'
\SOFTWARE= 'CUBISM'
\SOFT_VER= 'v1.50pre3 (March-2007)'
\FILENAME= 'sl1.tbl'
\ COMMENT This file contains a spectral extraction created from
\ COMMENT an IRS spectral mapping dataset.
\ Extraction Rectangle:
\ # Box: 13:15:48.398,+42:01:40.43 ; 13:15:49.314,+42:01:36.07
\ #      13:15:49.837,+42:01:49.68 ; 13:15:48.920,+42:01:54.04
|   WAVELENGTH    |      FLUX       | FLUX_UNCERTAINTY |
|      real       |      real       |       real       |
|       um        |     e/s/pix     |     e/s/pix      |
         7.533706          46.17532           1.000193
         7.595799          53.96988          0.8767397
         7.657894          53.94734          0.8386736
         7.719988          53.40755          0.8102739
         7.782082          52.57246          0.6789112
         7.844176          53.13910          0.7584462
         7.906271          51.73548          0.8744523
         7.968365          46.04485          0.8136747
         8.030458          40.80193          0.7574014
         8.092554          37.18030          0.7139937
         8.154648          35.74605          0.5179706
         8.216742          34.27146          0.5223964
         8.278836          32.51738          0.5438139
         8.340930          33.58628          0.5056493
         8.403025          33.30288          0.4403214
         8.465118          33.63060          0.4757187
         8.527213          35.40465          0.4174470
         8.589307          37.42273          0.4871577
         8.651402          35.11964          0.4407064
         8.713495          31.56575          0.3519901
         8.775590          26.90234          0.3829216
         8.837685          23.37976          0.3382114
         8.899778          21.88061          0.4603491
         8.961872          19.55438          0.3696555
         9.023967          18.58325          0.4028319
         9.086061          17.15893          0.4545338
         9.148155          17.39366          0.4005143
         9.210249          16.77795          0.4905161
         9.272344          17.46136          0.5698932
         9.334438          15.82641          0.4580207
         9.396532          16.21598          0.4985550
         9.458626          15.96662          0.5346377
         9.520720          16.03016          0.4310950
         9.582815          15.53930          0.4943806
         9.644909          18.74567          0.4150678
         9.707003          17.74336          0.4126258
         9.769097          16.76586          0.3946995
         9.831192          16.44021          0.3388372
         9.893286          14.80953          0.3537330
         9.955380          14.45182          0.3524808
         10.01747          15.21538          0.3790899
         10.07957          15.23494          0.3271218
         10.14166          14.05207          0.3209262
         10.20376          15.00649          0.2478883
         10.26585          14.08759          0.3420371
         10.32795          15.65311          0.2907625
         10.39004          14.52147          0.4031126
         10.45213          16.40633          0.3648045
         10.51423          17.41592          0.3653076
         10.57632          19.25138          0.3808342
         10.63842          18.65512          0.3406202
         10.70051          19.30128          0.3830750
         10.76260          20.36946          0.3892762
         10.82470          19.67609          0.4281966
         10.88679          21.07918          0.5320947
         10.94889          23.45507          0.4401864
         11.01098          27.36246          0.4543704
         11.07308          30.57466          0.3850395
         11.13517          39.68485          0.4064520
         11.19726          62.39755          0.3985370
         11.25936          78.19511          0.3809406
         11.32145          72.04520          0.3938447
         11.38355          59.55117          0.3723426
         11.44564          49.17203          0.4104227
         11.50774          42.62843          0.3703410
         11.56983          37.58515          0.3489252
         11.63192          34.02431          0.3470949
         11.69402          31.45949          0.3717502
         11.75611          30.78157          0.3431579
         11.81821          30.46567          0.3849405
         11.88030          33.17343          0.3235168
         11.94240          35.16282          0.3304570
         12.00449          35.47769          0.3656739
         12.06658          34.18018          0.4227426
         12.12868          33.58017          0.4397303
         12.19077          32.75727          0.5267516
         12.25287          34.72392          0.5290854
         12.31496          37.51065          0.4440428
         12.37705          36.18243          0.4919700
         12.43915          37.90955          0.4800864
         12.50124          39.01812          0.6087313
         12.56334          41.79830          0.3764186
         12.62543          43.43059          0.3658801
         12.68753          43.94859           1.029942
         12.74962          44.70242          0.3745225
         12.81171          51.16853          0.3353217
         12.87381          44.70306          0.3553523
         12.93590          32.57766          0.3451289
         12.99800          29.86492          0.3024366
         13.06009          28.74456          0.3442021
         13.12218          28.44926          0.3961123
         13.18428          28.43205          0.3958299
         13.24637          28.25080          0.3217602
         13.30847          27.15860          0.3647003
         13.37056          26.51009          0.4131372
         13.43266          25.37313          0.4387402
         13.49475          25.61040          0.3562768
         13.55684          25.67534          0.4891022
         13.61894          25.64820          0.4375443
         13.68103          24.19334          0.4856006
         13.74313          23.30157          0.5271010
         13.80522          22.85651          0.5278592
         13.86732          23.76259          0.5187686
         13.92941          21.99847          0.5066068
         13.99150          21.78061          0.5073538
         14.05360          22.30785          0.4829172
         14.11569          24.18430          0.5889980
         14.17779          23.52896          0.5231321
         14.23988          23.64694          0.5659868
         14.30198          23.77327          0.4469882
         14.36407          22.02246          0.3997092
         14.42616          21.21657          0.4415393
         14.48826          20.17685          0.3861888
         14.55035          19.68984          0.3789926
         14.61245          17.73599          0.4061754
         14.67454          18.20244          0.4109168
         14.73664          17.74698          0.3267252
