\DATE= 'Sat Sep 29 20:21:26 2007'
\APERNAME= 'LL2'
\BUNIT= 'e/s/pix'
\CAL_SET= 'irs_2007_02_12-pb-pfc-trim-omeg-lhbiasfork.cal'
\SOFTWARE= 'CUBISM'
\SOFT_VER= 'v1.50pre3 (March-2007)'
\FILENAME= 'll2.tbl'
\ COMMENT This file contains a spectral extraction created from
\ COMMENT an IRS spectral mapping dataset.
\ Extraction Rectangle:
\ # Box: 12:37:43.993,+11:48:52.11 ; 12:37:44.602,+11:49:10.36
\ #      12:37:43.048,+11:49:21.54 ; 12:37:42.439,+11:49:03.29
|   WAVELENGTH    |      FLUX       | FLUX_UNCERTAINTY |
|      real       |      real       |       real       |
|       um        |     e/s/pix     |     e/s/pix      |
         14.26661          8.010663         0.09076846
         14.35830          8.059472         0.07973401
         14.45000          8.192514         0.08325947
         14.54169          7.710150         0.07840998
         14.63338          7.794712         0.08030912
         14.72508          7.688881         0.08954439
         14.81677          7.530178         0.07920159
         14.90846          7.781764         0.07368168
         15.00015          7.610302         0.06823359
         15.09185          7.623419         0.06728919
         15.18354          7.867126         0.06791712
         15.27523          7.957610         0.07097422
         15.36693          7.991164         0.06446789
         15.45862          8.198558          0.1231294
         15.55031          10.23380         0.06837993
         15.64200          11.01226         0.06888221
         15.73370          10.17240          0.1839749
         15.82539          9.254015          0.7865546
         15.91708          9.240011         0.07649449
         16.00878          9.386929         0.07683451
         16.10047          9.678607          0.1013268
         16.19216          9.518885         0.08142948
         16.28386          9.912174         0.08958725
         16.37555          10.44736         0.08508393
         16.46724          11.47490         0.08393925
         16.55893          11.99039         0.08517249
         16.65063          11.14076         0.08335377
         16.74232          10.66370         0.08766997
         16.83401          11.71304         0.08805682
         16.92570          12.33744          0.1104008
         17.01740          16.01079         0.08324231
         17.10909          24.18714         0.08920495
         17.20078          19.67827         0.08406215
         17.29248          13.50545         0.09060407
         17.38417          12.67825         0.08846285
         17.47586          12.45537         0.09685992
         17.56756          12.11336         0.09062616
         17.65925          11.53782         0.09273640
         17.75094          11.81486          0.1019864
         17.84263          12.13191          0.1085581
         17.93433          12.30904          0.1159223
         18.02602          12.61309          0.1128621
         18.11771          11.66192          0.1026278
         18.20941          11.29646          0.1072256
         18.30110          11.18528          0.1068101
         18.39279          10.74997          0.1093572
         18.48449          11.42016          0.1086337
         18.57618          11.83837          0.1117543
         18.66787          11.97521          0.1195440
         18.75956          13.16041          0.1379570
         18.85126          14.32026          0.1236273
         18.94295          12.22514          0.1158327
         19.03464          11.88459          0.1217357
         19.12634          12.00306          0.1190189
         19.21803          11.72420          0.1586020
         19.30972          11.69204          0.1266989
         19.40141          11.58447          0.1636605
         19.49311          11.49010          0.1244589
         19.58480          11.67636          0.1198257
         19.67649          11.35589          0.1370512
         19.76819          11.64174          0.1363691
         19.85988          12.33184          0.1463263
         19.95157          12.39904          0.1535296
         20.04326          11.50216          0.1515293
         20.13496          11.87331          0.1657225
         20.22665          11.23788          0.1516925
         20.31834          10.96550          0.1581257
         20.41004          11.20327          0.1598755
         20.50173          11.00763          0.1795518
         20.59342          11.19707          0.1680771
         20.68512          11.56013          0.1934224
         20.77681          11.51075          0.2018723
         20.86850          10.79062          0.2011081
         20.96019          10.41708          0.2000837
         21.05189          9.693621          0.1922478
