\DATE= 'Wed Oct  3 02:42:58 2007'
\APERNAME= 'LL1'
\BUNIT= 'e/s/pix'
\CAL_SET= 'irs_2007_02_12-pb-pfc-trim-omeg-lhbiasfork.cal'
\SOFTWARE= 'CUBISM'
\SOFT_VER= 'v1.50pre3 (March-2007)'
\FILENAME= 'll1.tbl'
\ COMMENT This file contains a spectral extraction created from
\ COMMENT an IRS spectral mapping dataset.
\ Extraction Rectangle:
\ # Box: 20:34:51.626,+60:09:07.65 ; 20:34:52.709,+60:09:01.51
\ #      20:34:53.533,+60:09:09.60 ; 20:34:52.449,+60:09:15.74
|   WAVELENGTH    |      FLUX       | FLUX_UNCERTAINTY |
|      real       |      real       |       real       |
|       um        |     e/s/pix     |     e/s/pix      |
         20.52005          266.8633          0.8113993
         20.69658          278.6001          0.7662424
         20.87322          289.9291          0.6752464
         21.04995          256.1118          0.6212454
         21.22679          275.7269          0.6678389
         21.40373          289.0493          0.7544237
         21.58078          286.9293          0.6383793
         21.75792          288.3838          0.6122290
         21.93517          320.7060          0.6800355
         22.11252          331.6414          0.7376552
         22.28998          321.5467          0.7372269
         22.46754          319.9014          0.5995381
         22.64520          346.6857          0.8155612
         22.82297          364.7648          0.8086923
         23.00084          346.4267          0.8241883
         23.17881          356.6147          0.7514619
         23.35689          374.4695           1.152489
         23.53507          392.4047          0.9472530
         23.71336          396.7873          0.9658337
         23.89176          393.1202           1.187813
         24.07026          404.0155           1.790801
         24.24886          409.7632           1.102349
         24.42757          411.1576           1.457536
         24.60638          406.3596           1.435925
         24.78531          404.3532          0.7806247
         24.96433          413.3473          0.9473494
         25.14346          424.5239           1.104528
         25.32270          431.4993           1.201797
         25.50205          439.7513           1.248584
         25.68150          441.3987           1.002943
         25.86106          453.1204          0.9680290
         26.04073          457.9845           1.286953
         26.22051          462.4030           1.269275
         26.40039          465.2544           1.122216
         26.58038          463.8137           1.071128
         26.76048          475.1434           1.039986
         26.94068          491.2457           1.140302
         27.12100          503.1294           1.332513
         27.30142          516.0933           1.438598
         27.48195          511.8640           1.458382
         27.66259          507.3004           1.393671
         27.84334          514.5605           1.379731
         28.02420          536.8204           1.430514
         28.20517          549.2452           1.358098
         28.38625          547.1143           1.505135
         28.56744          549.3950           1.337634
         28.74874          544.6692           1.261059
         28.93015          545.4020           1.221712
         29.11167          555.2854           1.224776
         29.29330          513.4800           1.370885
         29.47504          578.6824           1.148862
         29.65689          599.2394           1.939013
         29.83886          598.3141           1.701950
         30.02094          603.9128           1.586475
         30.20312          604.0697           1.514127
         30.38542          665.1538           2.073758
         30.56783          627.4594           1.635634
         30.75036          634.4612           1.336780
         30.93299          641.0386           1.354227
         31.11574          641.5802           1.434415
         31.29861          663.0856           1.569610
         31.48158          654.0652           1.630530
         31.66467          671.4723           1.641734
         31.84788          690.4061           1.892407
         32.03119          699.3069           1.752936
         32.21462          709.7078           2.027883
         32.39817          761.8963           1.991295
         32.58183          736.2633           2.002039
         32.76560          756.4180           2.350155
         32.94949          790.7326           2.313350
         33.13350          796.4379           2.891622
         33.31762          842.0649           2.857421
         33.50185          906.3000           3.192395
         33.68620          884.5098           3.410782
         33.87067          815.2050           3.328999
         34.05526          819.9205           3.362777
         34.23996          824.9393           3.706084
         34.42477          842.4234           4.303061
         34.60971          876.9077           4.278800
         34.79476          1049.700           5.810165
         34.97993          907.4448           7.190977
         35.16521          828.2590           5.623381
         35.35062          764.9700           4.772290
         35.53614          856.4653           4.647055
         35.72178          867.1187           4.731302
         35.90754          858.3127           4.759485
         36.09341          861.1229           4.424120
         36.27941          904.3675           5.316797
         36.46552          958.2309           5.090040
         36.65176          935.5894           5.443059
         36.83811          971.2280           6.116433
         37.02459          931.2975           5.947296
         37.21118          885.9645           7.347383
         37.39790          885.8938           4.864405
         37.58473          894.2734           5.468029
         37.77169          1049.099           9.608203
         37.95876          920.3815           6.788218
         38.14596          1004.786           9.378086
         38.33328          935.1867           6.420781
