\DATE= 'Tue Feb 12 02:03:59 2008'
\APERNAME= 'SL2'
\BUNIT= 'e/s/pix'
\CAL_SET= 'irs_2007_02_12-pb-pfc-trim-omeg-lhbiasfork.cal'
\SOFTWARE= 'CUBISM'
\SOFT_VER= 'v1.50pre3 (March-2007)'
\FILENAME= 'sl2.tbl'
\ COMMENT This file contains a spectral extraction created from
\ COMMENT an IRS spectral mapping dataset.
\ Extraction Rectangle:
\ # Box: 20:34:52.077,+60:09:21.96 ; 20:34:51.441,+60:09:14.03
\ #      20:34:52.504,+60:09:09.27 ; 20:34:53.140,+60:09:17.21
|   WAVELENGTH    |      FLUX       | FLUX_UNCERTAINTY |
|      real       |      real       |       real       |
|       um        |     e/s/pix     |     e/s/pix      |
         5.242817          74.01440           1.724782
         5.273802          69.05018           2.024733
         5.304788          65.18089           1.470142
         5.335773          65.99767           1.417183
         5.366758          57.27284           1.289467
         5.397744          43.19802           1.430690
         5.428729          49.98647           1.082611
         5.459714          50.32913           1.002351
         5.490700          53.81862           1.071173
         5.521685          56.96357          0.9567496
         5.552670          58.92421          0.8904828
         5.583656          68.92192          0.8848847
         5.614641          84.04391           1.084354
         5.645627          94.60506          0.8263987
         5.676612          97.71911          0.8604246
         5.707598          102.2875          0.9603391
         5.738583          100.7682           1.049588
         5.769568          95.36761          0.9774267
         5.800553          87.48317           1.216393
         5.831539          91.94592           1.066596
         5.862525          100.9719           1.161011
         5.893510          106.5585           1.278119
         5.924495          108.3976           1.232037
         5.955481          118.4017           1.225741
         5.986466          145.5333           1.248381
         6.017451          169.3427           1.441923
         6.048437          167.9592           1.564502
         6.079422          182.6171           1.406008
         6.110407          217.6814           1.180860
         6.141393          312.2750           1.060274
         6.172378          457.2162           1.146236
         6.203363          561.2952           1.227333
         6.234349          541.7010           1.093977
         6.265334          462.4775           1.172640
         6.296319          381.8939           1.146827
         6.327305          319.4860           1.068332
         6.358290          282.2342          0.9756939
         6.389276          250.2693          0.8541700
         6.420261          223.2076          0.9522901
         6.451246          198.3932           1.119681
         6.482232          189.6610           1.083454
         6.513217          180.0737           1.165744
         6.544202          178.6408           1.115930
         6.575188          184.7497           1.384025
         6.606173          192.1726           1.220490
         6.637158          198.9454           1.317326
         6.668144          200.0340           1.240735
         6.699129          200.1619           1.206200
         6.730114          200.8324           1.335906
         6.761100          199.7368           1.462427
         6.792085          205.0446           1.433390
         6.823071          210.1120           1.212332
         6.854056          212.3171           1.362178
         6.885041          221.3463           1.401601
         6.916027          229.6089           1.174040
         6.947012          262.7851           1.186128
         6.977998          329.2218           1.337370
         7.008983          302.5250           1.364289
         7.039968          246.8311           1.338766
         7.070954          253.5331           1.214223
         7.101939          266.8016           1.113270
         7.132924          282.8935           1.405895
         7.163910          303.3445           1.422929
         7.194895          327.8589           1.643408
         7.225881          333.3890           1.563883
         7.256866          357.6183           1.615641
         7.287851          381.6403           1.913937
         7.318837          413.7017           1.766557
         7.349822          466.8193           2.105639
         7.380807          517.4866           2.481868
         7.411793          477.8918           2.365611
         7.442778          578.9091           2.119384
         7.473763          629.1673           2.361436
         7.504749          691.1962           2.508269
         7.535734          755.7379           2.248298
         7.566720          805.3190           2.240679
         7.597705          845.5858           2.389757
