\DATE= 'Sun Feb 17 15:31:08 2008'
\APERNAME= 'SL1'
\BUNIT= 'e/s/pix'
\CAL_SET= 'irs_2007_02_12-pb-pfc-trim-omeg-lhbiasfork.cal'
\SOFTWARE= 'CUBISM'
\SOFT_VER= 'v1.50pre3 (March-2007)'
\FILENAME= 'sl1.tbl'
\ COMMENT This file contains a spectral extraction created from
\ COMMENT an IRS spectral mapping dataset.
\ Extraction Rectangle:
\ # Box: 11:20:14.676,+12:59:28.48 ; 11:20:15.142,+12:59:25.58
\ #      11:20:15.290,+12:59:30.69 ; 11:20:14.824,+12:59:33.58
|   WAVELENGTH    |      FLUX       | FLUX_UNCERTAINTY |
|      real       |      real       |       real       |
|       um        |     e/s/pix     |     e/s/pix      |
         7.533706          211.0224           2.430007
         7.595799          248.0733           2.460949
         7.657894          248.6810           2.770936
         7.719988          246.6313           1.966645
         7.782082          245.4129           2.035740
         7.844176          234.7285           1.631821
         7.906271          224.0333           1.675277
         7.968365          202.6564           1.550802
         8.030458          186.0975           1.158299
         8.092554          161.5369           1.214428
         8.154648          146.6427           1.214043
         8.216742          140.2010           1.193629
         8.278836          140.6422           1.201192
         8.340930          136.3586          0.9342556
         8.403025          133.8039          0.9095497
         8.465118          141.3179           1.140311
         8.527213          146.3764           1.291673
         8.589307          153.2312           1.017561
         8.651402          144.1984           1.097940
         8.713495          127.5177          0.9270648
         8.775590          108.2297           1.033700
         8.837685          92.80357          0.9430416
         8.899778          82.17881          0.9430111
         8.961872          71.44110           1.087363
         9.023967          67.47732           1.237130
         9.086061          61.67672           1.414302
         9.148155          60.24049           1.021052
         9.210249          57.52950           1.180317
         9.272344          55.19807           1.206752
         9.334438          55.13218          0.9250624
         9.396532          52.47422          0.9989348
         9.458626          52.39394          0.9354650
         9.520720          50.37553          0.8305447
         9.582815          51.52314          0.8518561
         9.644909          62.18344          0.7123837
         9.707003          66.66312          0.7732606
         9.769097          52.42115          0.7135901
         9.831192          46.51348          0.7787164
         9.893286          44.35171          0.8226284
         9.955380          44.66245          0.7980576
         10.01747          44.25460          0.7866814
         10.07957          45.94669          0.8995509
         10.14166          46.11713          0.6764495
         10.20376          45.12818          0.8807771
         10.26585          45.66150          0.7162566
         10.32795          45.79749          0.8270440
         10.39004          48.27844          0.8524953
         10.45213          49.98614          0.9286283
         10.51423          52.89607           1.063994
         10.57632          59.93477          0.8728842
         10.63842          63.84391          0.9532089
         10.70051          64.49239          0.9603207
         10.76260          66.03924          0.7916952
         10.82470          65.42429          0.7755640
         10.88679          66.17284          0.8342348
         10.94889          71.40649          0.8504480
         11.01098          84.25452          0.7826045
         11.07308          95.72742          0.8584391
         11.13517          123.7423          0.7496759
         11.19726          208.7367          0.9046900
         11.25936          291.9581           1.003130
         11.32145          282.3856           1.514995
         11.38355          245.8547           1.132004
         11.44564          190.5618          0.9907978
         11.50774          164.8207          0.8589940
         11.56983          144.8356          0.8410056
         11.63192          129.4202          0.8260680
         11.69402          120.0580           1.065069
         11.75611          116.7554           1.115606
         11.81821          118.5446           1.007259
         11.88030          123.7814          0.9513178
         11.94240          137.8804          0.8953161
         12.00449          139.7460           1.076548
         12.06658          139.7492          0.8702597
         12.12868          132.9089           1.359179
         12.19077          132.0074           1.163471
         12.25287          137.5903           1.015624
         12.31496          152.3900           1.038895
         12.37705          149.4788           1.127305
         12.43915          147.8646          0.9827530
         12.50124          155.1463          0.9543538
         12.56334          162.5374          0.8402774
         12.62543          167.9125           1.047679
         12.68753          176.2735          0.9513326
         12.74962          181.7934          0.8664393
         12.81171          206.3933          0.7846865
         12.87381          187.8023          0.9967367
         12.93590          135.2565          0.9373717
         12.99800          116.3062          0.9310659
         13.06009          112.7196          0.9300511
         13.12218          111.1220          0.8499616
         13.18428          110.5104          0.8867927
         13.24637          112.1781          0.7786236
         13.30847          109.6530           1.192156
         13.37056          107.2515           1.141499
         13.43266          104.3658           1.086473
         13.49475          105.7691           1.327316
         13.55684          108.6980          0.9804842
         13.61894          107.4995           1.321639
         13.68103          103.4369           1.221645
         13.74313          95.92947           1.141851
         13.80522          92.54525           1.186800
         13.86732          87.09204           1.168991
         13.92941          87.37177           1.183566
         13.99150          86.90981           1.311919
         14.05360          86.37729          0.9212635
         14.11569          89.48562          0.8974217
         14.17779          87.23660           1.246597
         14.23988          87.89163           1.149457
         14.30198          87.72218           1.275732
         14.36407          82.14042          0.9870597
         14.42616          85.75780           1.090539
         14.48826          76.50861           1.009801
         14.55035          75.45587          0.9475219
         14.61245          74.00187          0.9115399
         14.67454          59.95700           1.420711
         14.73664          65.65777          0.8615894
