\DATE= 'Thu Oct 11 21:05:35 2007'
\APERNAME= 'SL2'
\BUNIT= 'e/s/pix'
\CAL_SET= 'irs_2007_02_12-pb-pfc-trim-omeg-lhbiasfork.cal'
\SOFTWARE= 'CUBISM'
\SOFT_VER= 'v1.50pre3 (March-2007)'
\FILENAME= 'sl2.tbl'
\ COMMENT This file contains a spectral extraction created from
\ COMMENT an IRS spectral mapping dataset.
\ Extraction Rectangle:
\ # Box: 12:56:43.283,+21:40:57.08 ; 12:56:43.740,+21:40:53.33
\ #      12:56:44.009,+21:40:59.71 ; 12:56:43.551,+21:41:03.46
|   WAVELENGTH    |      FLUX       | FLUX_UNCERTAINTY |
|      real       |      real       |       real       |
|       um        |     e/s/pix     |     e/s/pix      |
         5.242817          53.19879           1.489223
         5.273802          56.96540           1.446466
         5.304788          53.98930           1.302871
         5.335773          59.89006           1.481125
         5.366758          50.46712           1.225582
         5.397744          50.52938           1.074441
         5.428729          50.80824          0.9400735
         5.459714          45.45370           1.168706
         5.490700          49.55993           1.048785
         5.521685          52.73875          0.7039707
         5.552670          48.75591          0.9868915
         5.583656          48.51530          0.9271169
         5.614641          54.04133          0.7927155
         5.645627          55.25362          0.9251448
         5.676612          57.34811          0.7546116
         5.707598          56.63161          0.8781360
         5.738583          56.88918          0.9351166
         5.769568          54.39108          0.8821574
         5.800553          52.78527           1.145411
         5.831539          56.87069           1.205885
         5.862525          59.47204           1.121828
         5.893510          57.87799           1.300292
         5.924495          56.55015           1.343549
         5.955481          59.76657           1.072752
         5.986466          65.72887           1.424565
         6.017451          69.18847           1.200797
         6.048437          74.68078           1.293725
         6.079422          74.83971           1.067291
         6.110407          78.86511          0.9502910
         6.141393          93.36168          0.9774441
         6.172378          118.5727           1.002636
         6.203363          139.9673          0.7773531
         6.234349          140.6293          0.9576393
         6.265334          128.0849          0.8943738
         6.296319          107.2731          0.9917787
         6.327305          100.2754          0.9315062
         6.358290          94.71735          0.8548059
         6.389276          88.19810          0.9876770
         6.420261          81.68005           1.034975
         6.451246          70.85663          0.8453774
         6.482232          73.29114           1.209263
         6.513217          70.98141           1.469970
         6.544202          70.19335           1.257925
         6.575188          70.06398           1.518906
         6.606173          70.52980           1.555094
         6.637158          72.59525           1.338772
         6.668144          74.54973           1.255257
         6.699129          71.64776           1.170453
         6.730114          74.68011           1.087026
         6.761100          73.07119           1.040651
         6.792085          74.09984           1.138559
         6.823071          77.23634           1.360203
         6.854056          77.16318           1.335952
         6.885041          83.87350           1.203067
         6.916027          92.56497           1.090150
         6.947012          82.73553           1.198292
         6.977998          96.72025           1.229867
         7.008983          99.48565           1.263561
         7.039968          86.11566           1.198987
         7.070954          83.52216           1.137061
         7.101939          84.27782           1.327584
         7.132924          92.39378           1.137018
         7.163910          96.91850           1.304449
         7.194895          99.94516           1.674684
         7.225881          101.3949           1.384291
         7.256866          106.1977           1.689123
         7.287851          112.1811           1.627973
         7.318837          116.1385           1.957077
         7.349822          123.0794           2.293805
         7.380807          128.9745           1.939579
         7.411793          139.7458           1.736612
         7.442778          151.5751           1.556646
         7.473763          162.8894           1.858533
         7.504749          175.2457           2.147653
         7.535734          185.7225           1.836974
         7.566720          198.8748           1.521047
         7.597705          206.1123           2.084616
