\DATE= 'Mon Feb 11 22:10:29 2008'
\APERNAME= 'SL2'
\BUNIT= 'e/s/pix'
\CAL_SET= 'irs_2007_02_12-pb-pfc-trim-omeg-lhbiasfork.cal'
\SOFTWARE= 'CUBISM'
\SOFT_VER= 'v1.50pre3 (March-2007)'
\FILENAME= 'sl2.tbl'
\ COMMENT This file contains a spectral extraction created from
\ COMMENT an IRS spectral mapping dataset.
\ Extraction Rectangle:
\ # Box: 22:37:04.819,+34:24:35.31 ; 22:37:05.332,+34:24:39.11
\ #      22:37:04.717,+34:24:51.81 ; 22:37:04.204,+34:24:48.01
|   WAVELENGTH    |      FLUX       | FLUX_UNCERTAINTY |
|      real       |      real       |       real       |
|       um        |     e/s/pix     |     e/s/pix      |
         5.242817          4.566381           1.284913
         5.273802          3.845819           1.430874
         5.304788          5.345527           1.338110
         5.335773          6.198182           1.192772
         5.366758          7.163463           1.114069
         5.397744          4.723385           1.208136
         5.428729          4.094492           1.060380
         5.459714          5.211474          0.9769678
         5.490700          5.505828          0.8824371
         5.521685          2.305045          0.8337971
         5.552670          4.314000          0.7630355
         5.583656          6.155677          0.7855184
         5.614641          5.796281          0.8446977
         5.645627          6.068159          0.7233127
         5.676612          6.483957          0.7122393
         5.707598          4.906828          0.7590739
         5.738583          6.139940          0.7368414
         5.769568          6.790348          0.8833290
         5.800553          6.992724          0.9210352
         5.831539          7.016645          0.7990942
         5.862525          6.061849          0.8564973
         5.893510          4.584260          0.8789295
         5.924495          4.970588          0.9319236
         5.955481          5.654507           1.036411
         5.986466          6.313993           1.087599
         6.017451          5.911522          0.9082802
         6.048437          4.997532          0.9802653
         6.079422          6.755631           1.004517
         6.110407          6.831653          0.8342564
         6.141393          9.116690          0.8739414
         6.172378          11.79666          0.7908391
         6.203363          11.16387          0.7965911
         6.234349          14.13673          0.6976328
         6.265334          12.55711          0.7152767
         6.296319          11.93141          0.7248635
         6.327305          9.860946          0.7744152
         6.358290          10.12390          0.7941504
         6.389276          8.500551          0.8375691
         6.420261          9.264126          0.7637686
         6.451246          7.604781          0.7357813
         6.482232          6.492787          0.7787851
         6.513217          6.905665          0.9777501
         6.544202          6.109028           1.137156
         6.575188          7.524217           1.240170
         6.606173          5.503190           1.021823
         6.637158          5.117328           1.247772
         6.668144          5.122426           1.103744
         6.699129          5.705468           1.247754
         6.730114          7.598625           1.161812
         6.761100          7.102269           1.191429
         6.792085          6.405975           1.262787
         6.823071          5.454228           1.170282
         6.854056          7.900916           1.257682
         6.885041          7.891916           1.064540
         6.916027          5.236878           1.090222
         6.947012          6.954751           1.020495
         6.977998          9.124470           1.028799
         7.008983          8.052731           1.122661
         7.039968          10.45850           1.050534
         7.070954          11.50405           1.005083
         7.101939          8.826766          0.9549170
         7.132924          7.889616          0.9831463
         7.163910          10.68111          0.9604319
         7.194895          10.23251           1.122929
         7.225881          11.50470           1.047449
         7.256866          9.096045           1.097113
         7.287851          9.893736           1.392644
         7.318837          11.41302           1.433005
         7.349822          11.88933           1.321229
         7.380807          13.67824           1.588831
         7.411793          13.46980           1.736310
         7.442778          11.60602           1.507697
         7.473763          18.07743           1.591523
         7.504749          18.09022           1.811732
         7.535734          18.77576           1.633433
         7.566720          22.18201           1.662881
         7.597705          20.55706           1.727946
