\DATE= 'Tue Oct  2 13:51:12 2007'
\APERNAME= 'LL1'
\BUNIT= 'e/s/pix'
\CAL_SET= 'irs_2007_02_12-pb-pfc-trim-omeg-lhbiasfork.cal'
\SOFTWARE= 'CUBISM'
\SOFT_VER= 'v1.50pre3 (March-2007)'
\FILENAME= 'll1.tbl'
\ COMMENT This file contains a spectral extraction created from
\ COMMENT an IRS spectral mapping dataset.
\ Extraction Rectangle:
\ # Box: 12:56:43.479,+21:40:42.85 ; 12:56:44.349,+21:40:59.15
\ #      12:56:42.888,+21:41:14.32 ; 12:56:42.017,+21:40:58.02
|   WAVELENGTH    |      FLUX       | FLUX_UNCERTAINTY |
|      real       |      real       |       real       |
|       um        |     e/s/pix     |     e/s/pix      |
         20.52005          44.21560          0.4910711
         20.69658          48.09366          0.1161774
         20.87322          46.67221          0.1077629
         21.04995          46.77045         0.09065156
         21.22679          49.89584          0.1160556
         21.40373          49.74584          0.1177775
         21.58078          48.92893          0.1032098
         21.75792          51.55527          0.1112066
         21.93517          52.60511          0.1036205
         22.11252          51.91625         0.08879249
         22.28998          51.76151         0.07907359
         22.46754          55.02253         0.08277437
         22.64520          56.83736         0.08936671
         22.82297          57.21513         0.07966515
         23.00084          57.63881         0.07737876
         23.17881          60.44944         0.08555890
         23.35689          61.57290         0.08663790
         23.53507          63.23997         0.08467002
         23.71336          63.52590         0.07990491
         23.89176          64.17612         0.08815333
         24.07026          65.51980         0.08408643
         24.24886          67.11177         0.09205382
         24.42757          67.45814         0.09552154
         24.60638          67.43636          0.1000782
         24.78531          69.33292         0.09779055
         24.96433          70.76800          0.1091913
         25.14346          73.34890          0.1004996
         25.32270          75.61098          0.1195194
         25.50205          74.52631          0.1020246
         25.68150          78.34416          0.1085259
         25.86106          83.59432          0.1240338
         26.04073          86.87331          0.1246906
         26.22051          82.56554          0.1164677
         26.40039          80.86140          0.1193958
         26.58038          82.51702          0.1200374
         26.76048          85.21302          0.1199252
         26.94068          84.84753          0.1226555
         27.12100          86.90038          0.1232081
         27.30142          88.14109          0.1233106
         27.48195          89.13232          0.1355385
         27.66259          90.66293           1.127795
         27.84334          92.75737          0.1170764
         28.02420          95.98901          0.1293989
         28.20517          100.5026          0.1308898
         28.38625          100.8390          0.1320982
         28.56744          99.60710          0.1391216
         28.74874          100.8599          0.1260154
         28.93015          103.3825          0.1214295
         29.11167          106.1970          0.1519739
         29.29330          108.3853          0.1470882
         29.47504          109.5988          0.1381651
         29.65689          111.8509          0.1240139
         29.83886          112.4521          0.1341190
         30.02094          114.9974          0.1312037
         30.20312          117.3345          0.1415830
         30.38542          121.6618          0.1436615
         30.56783          124.1770          0.1644941
         30.75036          128.9975          0.1525494
         30.93299          128.1959          0.1659335
         31.11574          132.6776          0.1591971
         31.29861          132.5834          0.1661620
         31.48158          134.6969          0.1691585
         31.66467          139.1637          0.1692484
         31.84788          144.0468          0.1839850
         32.03119          146.2716          0.1946986
         32.21462          152.8519          0.2108982
         32.39817          162.6442          0.2612246
         32.58183          154.4293          0.2150385
         32.76560          160.6963          0.2193107
         32.94949          163.2710          0.2273351
         33.13350          169.0502          0.2277228
         33.31762          183.4760          0.2206473
         33.50185          224.6495          0.3015465
         33.68620          222.0322          0.3008764
         33.87067          182.9597           1.820661
         34.05526          185.9626          0.7191944
         34.23996          183.2003          0.3151256
         34.42477          184.3450           1.446632
         34.60971          206.4334          0.5963966
         34.79476          282.7823          0.4147187
         34.97993          313.7759          0.4173318
         35.16521          215.6627          0.3502619
         35.35062          209.1773          0.3657204
         35.53614          198.3855          0.4026223
         35.72178          203.3687          0.4318673
         35.90754          210.7734          0.5037315
         36.09341          204.0476          0.4755426
         36.27941          215.3822          0.5260063
         36.46552          229.4936          0.6482466
         36.65176          231.7103          0.5728515
         36.83811          235.2375          0.6657938
         37.02459          220.7028          0.6156217
         37.21118          237.4061          0.7136855
         37.39790          237.3170          0.6736829
         37.58473          238.8250          0.7789984
         37.77169          252.0222          0.9990810
         37.95876          304.0578           1.516135
         38.14596          288.1373           1.404284
         38.33328          249.6247           1.407081
