\DATE= 'Tue Oct  2 13:51:37 2007'
\APERNAME= 'LL2'
\BUNIT= 'e/s/pix'
\CAL_SET= 'irs_2007_02_12-pb-pfc-trim-omeg-lhbiasfork.cal'
\SOFTWARE= 'CUBISM'
\SOFT_VER= 'v1.50pre3 (March-2007)'
\FILENAME= 'll2.tbl'
\ COMMENT This file contains a spectral extraction created from
\ COMMENT an IRS spectral mapping dataset.
\ Extraction Rectangle:
\ # Box: 12:56:43.860,+21:40:39.06 ; 12:56:45.167,+21:41:03.50
\ #      12:56:43.414,+21:41:21.71 ; 12:56:42.107,+21:40:57.27
|   WAVELENGTH    |      FLUX       | FLUX_UNCERTAINTY |
|      real       |      real       |       real       |
|       um        |     e/s/pix     |     e/s/pix      |
         14.26661          28.85534         0.08314935
         14.35830          28.01399         0.06126823
         14.45000          26.69635         0.05775130
         14.54169          25.56010         0.05708842
         14.63338          25.00332         0.05804960
         14.72508          24.22071         0.06145752
         14.81677          24.05229         0.05786661
         14.90846          23.94471         0.05438628
         15.00015          23.59730         0.05059937
         15.09185          23.90687         0.05024641
         15.18354          24.10231         0.04929787
         15.27523          24.47704         0.05270281
         15.36693          24.79440         0.04989605
         15.45862          26.09384          0.2367187
         15.55031          30.90718         0.08337083
         15.64200          30.83953         0.05023396
         15.73370          27.64708         0.05361677
         15.82539          28.15825         0.06212855
         15.91708          29.77185         0.06202492
         16.00878          30.24853         0.05854903
         16.10047          30.40499         0.06342586
         16.19216          31.03026         0.06205307
         16.28386          34.54990         0.06638027
         16.37555          42.28145         0.06799530
         16.46724          48.81346         0.07286149
         16.55893          46.58006         0.07097734
         16.65063          43.30923         0.06290986
         16.74232          44.34011         0.06711844
         16.83401          45.26285         0.07832128
         16.92570          48.19255         0.08023582
         17.01740          59.89856         0.07290698
         17.10909          60.91294         0.07270461
         17.20078          50.76933         0.06918012
         17.29248          49.03254         0.06857028
         17.38417          49.28041         0.07040916
         17.47586          46.18319         0.07061708
         17.56756          40.88895         0.06718440
         17.65925          38.24315         0.06450718
         17.75094          38.29557         0.06644132
         17.84263          38.11348         0.07122491
         17.93433          37.31213         0.06974089
         18.02602          34.93641         0.06540302
         18.11771          33.44289         0.06553052
         18.20941          33.22681         0.08923182
         18.30110          33.00029         0.06563743
         18.39279          33.15393         0.06526659
         18.48449          33.53406         0.06694640
         18.57618          34.96004         0.06671289
         18.66787          44.36809         0.07307108
         18.75956          53.31126         0.07869900
         18.85126          41.49306         0.07378096
         18.94295          36.16879         0.07310469
         19.03464          35.46421         0.07767878
         19.12634          35.58678         0.08043746
         19.21803          34.71799         0.08775736
         19.30972          35.15502         0.09770551
         19.40141          34.76284          0.1203019
         19.49311          34.64509         0.09883174
         19.58480          35.23080         0.09976017
         19.67649          35.37577         0.09676191
         19.76819          35.29834          0.1061910
         19.85988          35.35677          0.1036418
         19.95157          35.34034          0.1081966
         20.04326          35.88166          0.1054386
         20.13496          36.15839          0.2088805
         20.22665          36.33266          0.1143774
         20.31834          35.94360          0.1006311
         20.41004          35.68600         0.09915438
         20.50173          36.05517         0.09819365
         20.59342          36.35398         0.09768992
         20.68512          36.34188          0.1093994
         20.77681          36.12024          0.1280143
         20.86850          35.84329          0.1267567
         20.96019          35.37445          0.1345659
         21.05189          34.05505          0.1510463
