\DATE= 'Sat Feb 16 23:36:14 2008'
\APERNAME= 'SL2'
\BUNIT= 'e/s/pix'
\CAL_SET= 'irs_2007_02_12-pb-pfc-trim-omeg-lhbiasfork.cal'
\SOFTWARE= 'CUBISM'
\SOFT_VER= 'v1.50pre3 (March-2007)'
\FILENAME= 'sl2.tbl'
\ COMMENT This file contains a spectral extraction created from
\ COMMENT an IRS spectral mapping dataset.
\ Extraction Rectangle:
\ # Box: 12:22:54.504,+15:49:17.33 ; 12:22:54.970,+15:49:14.23
\ #      12:22:55.238,+15:49:22.62 ; 12:22:54.773,+15:49:25.72
|   WAVELENGTH    |      FLUX       | FLUX_UNCERTAINTY |
|      real       |      real       |       real       |
|       um        |     e/s/pix     |     e/s/pix      |
         5.242817          12.28390           1.583195
         5.273802          10.05586           1.682626
         5.304788          12.53423           1.275559
         5.335773          11.81424           1.479508
         5.366758          11.94439           1.263637
         5.397744          13.80108           1.260934
         5.428729          10.74592           1.185343
         5.459714          7.713409          0.9170025
         5.490700          9.250203           1.181764
         5.521685          10.86242          0.8143923
         5.552670          10.04158          0.8740088
         5.583656          9.120361          0.9068027
         5.614641          9.401410          0.7845490
         5.645627          11.71237          0.9540418
         5.676612          13.07371           1.031196
         5.707598          16.47555          0.8207322
         5.738583          12.35948          0.8771669
         5.769568          13.54619           1.083620
         5.800553          11.15937          0.9953639
         5.831539          12.87760          0.9734747
         5.862525          12.82155           1.071947
         5.893510          16.77067           1.229217
         5.924495          16.84429           1.282759
         5.955481          16.31006           1.106835
         5.986466          16.88041           1.362644
         6.017451          17.96521           1.413996
         6.048437          21.80565           1.282066
         6.079422          22.47925           1.321435
         6.110407          25.71232           1.076858
         6.141393          28.17675           1.046174
         6.172378          35.22871           1.126962
         6.203363          50.73469          0.9587144
         6.234349          61.06783          0.8083650
         6.265334          58.40699          0.8920730
         6.296319          51.95461          0.8417299
         6.327305          41.18724           1.148721
         6.358290          37.87638          0.8781421
         6.389276          33.03664          0.8909062
         6.420261          30.71290          0.8636724
         6.451246          28.68797           1.082061
         6.482232          25.21423           1.021188
         6.513217          21.36370           1.153585
         6.544202          22.29659           1.194150
         6.575188          20.38251           1.429624
         6.606173          21.37159           1.165950
         6.637158          25.01742           1.517573
         6.668144          22.47821           1.528027
         6.699129          23.02474           1.169714
         6.730114          24.04808           1.376411
         6.761100          25.37398           1.267081
         6.792085          24.60473           1.329054
         6.823071          24.62417           1.463002
         6.854056          26.56199           1.091678
         6.885041          25.68845           1.229304
         6.916027          29.66296           1.193072
         6.947012          33.88808           1.137694
         6.977998          31.72460           1.242996
         7.008983          44.87606           1.174438
         7.039968          37.91090           1.540649
         7.070954          30.88561           1.262545
         7.101939          34.82601           1.301000
         7.132924          33.42250           1.367168
         7.163910          37.21727           1.600349
         7.194895          36.59005           1.143370
         7.225881          39.15233           1.401269
         7.256866          40.84149           1.409375
         7.287851          43.51052           1.773824
         7.318837          42.42341           1.642461
         7.349822          47.45558           2.074201
         7.380807          49.63981           1.896188
         7.411793          51.24069           1.671444
         7.442778          55.23256           1.688528
         7.473763          61.12466           1.898764
         7.504749          70.67106           1.609644
         7.535734          74.89792           1.932503
         7.566720          78.52306           1.911216
         7.597705          87.01917           2.276901
