\DATE= 'Tue Oct  2 20:51:04 2007'
\APERNAME= 'LL2'
\BUNIT= 'e/s/pix'
\CAL_SET= 'irs_2007_02_12-pb-pfc-trim-omeg-lhbiasfork.cal'
\SOFTWARE= 'CUBISM'
\SOFT_VER= 'v1.50pre3 (March-2007)'
\FILENAME= 'll2.tbl'
\ COMMENT This file contains a spectral extraction created from
\ COMMENT an IRS spectral mapping dataset.
\ Extraction Rectangle:
\ # Box: 13:15:50.079,+42:01:22.70 ; 13:15:51.423,+42:01:49.25
\ #      13:15:46.658,+42:02:19.20 ; 13:15:45.314,+42:01:52.66
|   WAVELENGTH    |      FLUX       | FLUX_UNCERTAINTY |
|      real       |      real       |       real       |
|       um        |     e/s/pix     |     e/s/pix      |
         14.26661          11.97681         0.04347408
         14.35830          11.69638         0.03995942
         14.45000          10.99954         0.03903066
         14.54169          10.32655         0.03775071
         14.63338          10.11315         0.03795747
         14.72508          9.978482         0.03771148
         14.81677          9.733244         0.03725095
         14.90846          9.824954         0.03566625
         15.00015          9.647826         0.03256247
         15.09185          9.694774         0.03506674
         15.18354          9.748914         0.04799480
         15.27523          9.940524         0.05724759
         15.36693          10.00802         0.03164149
         15.45862          10.58141          0.1132673
         15.55031          12.73644         0.04024264
         15.64200          12.69476         0.02956945
         15.73370          11.24636         0.02962496
         15.82539          11.28624         0.03232170
         15.91708          11.80137         0.03528358
         16.00878          12.06738         0.03662505
         16.10047          12.18402         0.03797794
         16.19216          12.44009         0.04123893
         16.28386          13.85791         0.04067877
         16.37555          17.00359         0.04235795
         16.46724          20.00623         0.04166691
         16.55893          18.94330         0.04020816
         16.65063          17.89376         0.03770641
         16.74232          18.20597         0.03992927
         16.83401          18.64363         0.04116454
         16.92570          19.68830         0.04170362
         17.01740          24.54568         0.04013138
         17.10909          25.13936         0.04037412
         17.20078          20.90264         0.03990154
         17.29248          19.94646         0.04182915
         17.38417          20.01237         0.04266952
         17.47586          18.37603         0.04199670
         17.56756          15.96003         0.04438103
         17.65925          14.73699         0.04509674
         17.75094          14.65846         0.04726225
         17.84263          14.33963         0.04949845
         17.93433          13.85236         0.05214570
         18.02602          12.94731         0.04950779
         18.11771          12.48634         0.04932392
         18.20941          12.25183         0.05101496
         18.30110          12.23852         0.05743502
         18.39279          12.24782         0.05632601
         18.48449          12.46741          0.1445049
         18.57618          12.67491         0.05550730
         18.66787          15.00614         0.05691657
         18.75956          17.18780         0.05839616
         18.85126          14.37000         0.05744446
         18.94295          12.90353         0.05474982
         19.03464          12.45571         0.05931767
         19.12634          12.58320         0.06314311
         19.21803          12.21606         0.06000597
         19.30972          12.12275         0.06287373
         19.40141          11.92511         0.07069392
         19.49311          11.98148         0.06264981
         19.58480          11.97078         0.06268422
         19.67649          11.83628         0.06955076
         19.76819          11.76539         0.06742533
         19.85988          11.85425         0.09000198
         19.95157          11.89917         0.06916361
         20.04326          11.74324         0.07595482
         20.13496          11.88038         0.08204043
         20.22665          11.90006         0.08529618
         20.31834          11.52218         0.08381137
         20.41004          11.52810         0.09195363
         20.50173          11.65905         0.08693626
         20.59342          11.67688         0.09494437
         20.68512          11.51341         0.09756582
         20.77681          11.70826          0.1025913
         20.86850          11.35128          0.1009714
         20.96019          11.21065          0.1046752
         21.05189          10.79953         0.09106832
