\DATE= 'Wed Sep 26 14:42:20 2007'
\APERNAME= 'LL2'
\BUNIT= 'e/s/pix'
\CAL_SET= 'irs_2007_02_12-pb-pfc-trim-omeg-lhbiasfork.cal'
\SOFTWARE= 'CUBISM'
\SOFT_VER= 'v1.50pre3 (March-2007)'
\FILENAME= 'll2.tbl'
\ COMMENT This file contains a spectral extraction created from
\ COMMENT an IRS spectral mapping dataset.
\ Extraction Rectangle:
\ # Box: 11:20:15.811,+12:59:17.03 ; 11:20:16.321,+12:59:30.33
\ #      11:20:14.199,+12:59:47.72 ; 11:20:13.689,+12:59:34.43
|   WAVELENGTH    |      FLUX       | FLUX_UNCERTAINTY |
|      real       |      real       |       real       |
|       um        |     e/s/pix     |     e/s/pix      |
         14.26661          19.61248          0.5112788
         14.35830          19.26335         0.09571325
         14.45000          18.22796         0.07991976
         14.54169          17.49251         0.07667132
         14.63338          17.29334         0.08016576
         14.72508          16.93252         0.08825510
         14.81677          16.83910         0.08148607
         14.90846          16.69149         0.06801786
         15.00015          16.52252         0.06921544
         15.09185          16.56841         0.06266841
         15.18354          16.72519         0.06892183
         15.27523          17.02427         0.06803562
         15.36693          17.06718         0.06555998
         15.45862          17.69971          0.2892579
         15.55031          20.76846         0.08808229
         15.64200          21.45646         0.06409534
         15.73370          19.36207         0.06437647
         15.82539          19.59140         0.06738039
         15.91708          20.81471         0.07279149
         16.00878          20.83153         0.07937377
         16.10047          20.82699         0.08358576
         16.19216          21.04061         0.08820586
         16.28386          22.60832         0.08642776
         16.37555          26.93828         0.08621172
         16.46724          31.70906         0.09024952
         16.55893          31.23889         0.09043162
         16.65063          28.67900         0.08252429
         16.74232          29.29868         0.08699762
         16.83401          30.14205         0.08991835
         16.92570          32.29980         0.09446011
         17.01740          41.67753         0.09568423
         17.10909          44.80142         0.09112681
         17.20078          35.12867          0.1010130
         17.29248          32.58360          0.1093409
         17.38417          31.86971          0.2490015
         17.47586          30.32586          0.1015369
         17.56756          27.55955         0.09795070
         17.65925          25.68849         0.09436321
         17.75094          26.11557         0.09309997
         17.84263          25.72583         0.09517281
         17.93433          25.27804         0.09955060
         18.02602          23.73159          0.1003129
         18.11771          22.65574          0.1024626
         18.20941          22.43390          0.1053869
         18.30110          22.08190          0.1061292
         18.39279          22.39102         0.09809030
         18.48449          22.38069          0.1049147
         18.57618          22.88504          0.1052538
         18.66787          24.12319          0.1020428
         18.75956          25.70997          0.1263831
         18.85126          25.43908          0.1045734
         18.94295          23.47555          0.1032781
         19.03464          23.05516          0.1107881
         19.12634          23.28335          0.1140777
         19.21803          22.94775          0.1181503
         19.30972          23.31618          0.1196001
         19.40141          22.96349          0.1394902
         19.49311          22.81274          0.1273289
         19.58480          23.07409          0.1194002
         19.67649          23.41998          0.1203100
         19.76819          23.88204          0.1406856
         19.85988          23.77726          0.1444436
         19.95157          23.30368          0.1393308
         20.04326          23.82735          0.1421657
         20.13496          23.81452          0.1488737
         20.22665          23.94861          0.1490217
         20.31834          23.87031          0.1531554
         20.41004          23.96523          0.1480488
         20.50173          24.39386          0.1599713
         20.59342          24.01905          0.3291442
         20.68512          24.34718          0.9390234
         20.77681          24.24223          0.1746523
         20.86850          23.87117          0.1766108
         20.96019          24.42497          0.1809227
         21.05189          22.94928          0.1849322
