\DATE= 'Mon Sep 24 19:54:01 2007'
\APERNAME= 'LL2'
\BUNIT= 'e/s/pix'
\CAL_SET= 'irs_2007_02_12-pb-pfc-trim-omeg-lhbiasfork.cal'
\SOFTWARE= 'CUBISM'
\SOFT_VER= 'v1.50pre3 (March-2007)'
\FILENAME= 'll2.tbl'
\ COMMENT This file contains a spectral extraction created from
\ COMMENT an IRS spectral mapping dataset.
\ Extraction Rectangle:
\ # Box: 09:22:03.302,+50:58:05.26 ; 09:22:05.590,+50:58:26.76
\ #      09:22:02.555,+50:58:55.57 ; 09:22:00.267,+50:58:34.07
|   WAVELENGTH    |      FLUX       | FLUX_UNCERTAINTY |
|      real       |      real       |       real       |
|       um        |     e/s/pix     |     e/s/pix      |
         14.26661          1.841464         0.04345351
         14.35830          1.767786         0.04355479
         14.45000          1.834870         0.04068426
         14.54169          1.780527         0.03968925
         14.63338          1.825401         0.03954533
         14.72508          1.696473         0.04212003
         14.81677          1.672984         0.03814100
         14.90846          1.833440         0.03771731
         15.00015          1.729617         0.08235766
         15.09185          1.586414         0.03582121
         15.18354          1.515644         0.04883594
         15.27523          1.702780         0.06633065
         15.36693          1.647861         0.03239170
         15.45862          1.860636         0.03277775
         15.55031          2.809317         0.03197902
         15.64200          2.882415         0.03115907
         15.73370          1.923133         0.03241894
         15.82539          1.703694         0.03384081
         15.91708          1.755471         0.03846333
         16.00878          1.825548         0.04601182
         16.10047          1.770764         0.03972240
         16.19216          1.650579         0.04245775
         16.28386          1.884572         0.04209422
         16.37555          2.130092         0.04451951
         16.46724          2.211285         0.05882496
         16.55893          2.195615         0.04159628
         16.65063          2.107232         0.04086290
         16.74232          2.141307         0.04298995
         16.83401          2.055990         0.04343050
         16.92570          2.273753         0.04364664
         17.01740          2.575113         0.03951680
         17.10909          2.721081         0.04252425
         17.20078          2.251915         0.03900768
         17.29248          2.175337         0.04689055
         17.38417          2.161105         0.04739666
         17.47586          2.163582         0.04675455
         17.56756          2.022695         0.04417967
         17.65925          1.901735         0.04223140
         17.75094          1.936583         0.04559273
         17.84263          1.977097         0.04819989
         17.93433          1.923746         0.04880567
         18.02602          1.805307         0.04808829
         18.11771          1.864738         0.04859567
         18.20941          1.694731         0.04815306
         18.30110          1.861949         0.05948293
         18.39279          1.823210         0.05272445
         18.48449          1.859345         0.05170904
         18.57618          1.838388         0.05599602
         18.66787          2.227752         0.05263741
         18.75956          2.744202          0.1091454
         18.85126          2.330073         0.06002381
         18.94295          1.935717         0.05616500
         19.03464          1.611334         0.05788057
         19.12634          1.732498         0.06101900
         19.21803          1.809966         0.06130965
         19.30972          1.659307         0.06484996
         19.40141          1.641651         0.06291232
         19.49311          1.763972         0.07033011
         19.58480          1.466148         0.07091700
         19.67649          1.779847         0.06984644
         19.76819          1.592137         0.07467505
         19.85988          1.367467         0.07523666
         19.95157          1.403541         0.07614058
         20.04326          1.612099         0.07799524
         20.13496          1.535349         0.08252392
         20.22665          1.681454         0.08640397
         20.31834          1.585864         0.08446446
         20.41004          1.529857         0.08461413
         20.50173          1.648053         0.08821251
         20.59342          1.497697         0.08530254
         20.68512          1.397566         0.09605850
         20.77681          1.678460          0.1082417
         20.86850          1.291294          0.1060763
         20.96019          1.609118         0.09667962
         21.05189          1.398966         0.09349678
